# E (eV)  dosup(E)   dosdw(E)  pdosup(E)  pdosdw(E)
   4.105  0.409E-05  0.403E-05  0.407E-05  0.401E-05
   4.205  0.196E-03  0.194E-03  0.195E-03  0.193E-03
   4.305  0.319E-02  0.317E-02  0.317E-02  0.315E-02
   4.405  0.176E-01  0.176E-01  0.175E-01  0.174E-01
   4.505  0.331E-01  0.331E-01  0.328E-01  0.328E-01
   4.605  0.217E-01  0.217E-01  0.215E-01  0.216E-01
   4.705  0.133E-01  0.133E-01  0.133E-01  0.132E-01
   4.805  0.417E-01  0.416E-01  0.415E-01  0.414E-01
   4.905  0.662E-01  0.662E-01  0.659E-01  0.659E-01
   5.005  0.359E-01  0.360E-01  0.358E-01  0.359E-01
   5.105  0.662E-02  0.666E-02  0.659E-02  0.662E-02
   5.205  0.414E-03  0.417E-03  0.412E-03  0.415E-03
   5.305  0.883E-05  0.892E-05  0.879E-05  0.888E-05
   5.405  0.671E-05  0.652E-05  0.669E-05  0.650E-05
   5.505  0.445E-03  0.435E-03  0.444E-03  0.434E-03
   5.605  0.104E-01  0.103E-01  0.104E-01  0.103E-01
   5.705  0.895E-01  0.886E-01  0.893E-01  0.884E-01
   5.805  0.299E+00  0.298E+00  0.299E+00  0.297E+00
   5.905  0.418E+00  0.418E+00  0.416E+00  0.417E+00
   6.005  0.243E+00  0.244E+00  0.242E+00  0.244E+00
   6.105  0.618E-01  0.623E-01  0.616E-01  0.621E-01
   6.205  0.626E-01  0.621E-01  0.625E-01  0.621E-01
   6.305  0.173E+00  0.173E+00  0.173E+00  0.173E+00
   6.405  0.184E+00  0.184E+00  0.184E+00  0.184E+00
   6.505  0.129E+00  0.128E+00  0.129E+00  0.128E+00
   6.605  0.190E+00  0.189E+00  0.189E+00  0.188E+00
   6.705  0.164E+00  0.166E+00  0.164E+00  0.165E+00
   6.805  0.506E-01  0.518E-01  0.508E-01  0.520E-01
   6.905  0.152E-01  0.153E-01  0.189E-01  0.190E-01
   7.005  0.565E-01  0.556E-01  0.730E-01  0.720E-01
   7.105  0.194E+00  0.188E+00  0.219E+00  0.213E+00
   7.205  0.490E+00  0.477E+00  0.504E+00  0.492E+00
   7.305  0.661E+00  0.660E+00  0.673E+00  0.672E+00
   7.405  0.634E+00  0.630E+00  0.651E+00  0.648E+00
   7.505  0.831E+00  0.812E+00  0.842E+00  0.823E+00
   7.605  0.107E+01  0.104E+01  0.107E+01  0.105E+01
   7.705  0.153E+01  0.150E+01  0.156E+01  0.153E+01
   7.805  0.202E+01  0.203E+01  0.208E+01  0.209E+01
   7.905  0.178E+01  0.182E+01  0.184E+01  0.188E+01
   8.005  0.134E+01  0.136E+01  0.138E+01  0.140E+01
   8.105  0.133E+01  0.133E+01  0.139E+01  0.138E+01
   8.205  0.155E+01  0.153E+01  0.162E+01  0.161E+01
   8.305  0.208E+01  0.205E+01  0.217E+01  0.214E+01
   8.405  0.216E+01  0.217E+01  0.223E+01  0.223E+01
   8.505  0.138E+01  0.142E+01  0.142E+01  0.146E+01
   8.605  0.104E+01  0.103E+01  0.106E+01  0.105E+01
   8.705  0.126E+01  0.125E+01  0.128E+01  0.127E+01
   8.805  0.141E+01  0.142E+01  0.143E+01  0.144E+01
   8.905  0.134E+01  0.136E+01  0.134E+01  0.136E+01
   9.005  0.141E+01  0.141E+01  0.141E+01  0.141E+01
   9.105  0.184E+01  0.183E+01  0.184E+01  0.182E+01
   9.205  0.192E+01  0.191E+01  0.192E+01  0.190E+01
   9.305  0.172E+01  0.170E+01  0.172E+01  0.170E+01
   9.405  0.169E+01  0.166E+01  0.170E+01  0.167E+01
   9.505  0.176E+01  0.174E+01  0.180E+01  0.178E+01
   9.605  0.171E+01  0.171E+01  0.180E+01  0.180E+01
   9.705  0.156E+01  0.159E+01  0.163E+01  0.167E+01
   9.805  0.173E+01  0.172E+01  0.176E+01  0.175E+01
   9.905  0.237E+01  0.230E+01  0.239E+01  0.232E+01
  10.005  0.280E+01  0.276E+01  0.282E+01  0.279E+01
  10.105  0.259E+01  0.259E+01  0.260E+01  0.261E+01
  10.205  0.236E+01  0.235E+01  0.237E+01  0.235E+01
  10.305  0.206E+01  0.211E+01  0.207E+01  0.211E+01
  10.405  0.165E+01  0.170E+01  0.167E+01  0.172E+01
  10.505  0.197E+01  0.195E+01  0.199E+01  0.198E+01
  10.605  0.242E+01  0.241E+01  0.244E+01  0.243E+01
  10.705  0.222E+01  0.226E+01  0.222E+01  0.226E+01
  10.805  0.207E+01  0.209E+01  0.208E+01  0.209E+01
  10.905  0.232E+01  0.229E+01  0.234E+01  0.231E+01
  11.005  0.245E+01  0.243E+01  0.247E+01  0.245E+01
  11.105  0.239E+01  0.238E+01  0.241E+01  0.240E+01
  11.205  0.235E+01  0.234E+01  0.237E+01  0.236E+01
  11.305  0.218E+01  0.214E+01  0.219E+01  0.215E+01
  11.405  0.195E+01  0.197E+01  0.195E+01  0.197E+01
  11.505  0.176E+01  0.183E+01  0.176E+01  0.182E+01
  11.605  0.191E+01  0.192E+01  0.192E+01  0.193E+01
  11.705  0.247E+01  0.246E+01  0.249E+01  0.248E+01
  11.805  0.264E+01  0.266E+01  0.264E+01  0.266E+01
  11.905  0.235E+01  0.233E+01  0.235E+01  0.233E+01
  12.005  0.231E+01  0.230E+01  0.233E+01  0.232E+01
  12.105  0.203E+01  0.206E+01  0.205E+01  0.208E+01
  12.205  0.149E+01  0.150E+01  0.149E+01  0.151E+01
  12.305  0.134E+01  0.128E+01  0.133E+01  0.128E+01
  12.405  0.155E+01  0.145E+01  0.154E+01  0.144E+01
  12.505  0.180E+01  0.179E+01  0.179E+01  0.178E+01
  12.605  0.161E+01  0.170E+01  0.160E+01  0.170E+01
  12.705  0.106E+01  0.113E+01  0.106E+01  0.113E+01
  12.805  0.814E+00  0.830E+00  0.811E+00  0.827E+00
  12.905  0.735E+00  0.730E+00  0.714E+00  0.712E+00
  13.005  0.897E+00  0.874E+00  0.854E+00  0.833E+00
  13.105  0.118E+01  0.117E+01  0.111E+01  0.110E+01
  13.205  0.120E+01  0.123E+01  0.111E+01  0.114E+01
  13.305  0.729E+00  0.769E+00  0.661E+00  0.699E+00
  13.405  0.327E+00  0.341E+00  0.286E+00  0.299E+00
  13.505  0.204E+00  0.209E+00  0.173E+00  0.178E+00
  13.605  0.779E-01  0.825E-01  0.658E-01  0.696E-01
  13.705  0.370E-01  0.371E-01  0.299E-01  0.299E-01
  13.805  0.154E+00  0.151E+00  0.123E+00  0.120E+00
  13.905  0.343E+00  0.340E+00  0.276E+00  0.273E+00
  14.005  0.308E+00  0.312E+00  0.249E+00  0.252E+00
  14.105  0.119E+00  0.122E+00  0.969E-01  0.995E-01
  14.205  0.812E-01  0.780E-01  0.746E-01  0.714E-01
  14.305  0.180E+00  0.177E+00  0.170E+00  0.167E+00
  14.405  0.167E+00  0.171E+00  0.156E+00  0.160E+00
  14.505  0.533E-01  0.567E-01  0.495E-01  0.529E-01
  14.605  0.159E-01  0.155E-01  0.143E-01  0.139E-01
  14.705  0.986E-01  0.927E-01  0.865E-01  0.809E-01
  14.805  0.325E+00  0.318E+00  0.283E+00  0.276E+00
  14.905  0.366E+00  0.372E+00  0.316E+00  0.321E+00
  15.005  0.140E+00  0.148E+00  0.120E+00  0.127E+00
  15.105  0.183E-01  0.200E-01  0.155E-01  0.170E-01
  15.205  0.126E-02  0.132E-02  0.109E-02  0.115E-02
  15.305  0.979E-02  0.919E-02  0.889E-02  0.834E-02
  15.405  0.730E-01  0.704E-01  0.665E-01  0.640E-01
  15.505  0.185E+00  0.183E+00  0.169E+00  0.167E+00
  15.605  0.160E+00  0.163E+00  0.146E+00  0.149E+00
  15.705  0.468E-01  0.490E-01  0.429E-01  0.449E-01
  15.805  0.499E-02  0.533E-02  0.453E-02  0.485E-02
  15.905  0.830E-02  0.804E-02  0.642E-02  0.623E-02
  16.005  0.712E-01  0.695E-01  0.547E-01  0.534E-01
  16.105  0.241E+00  0.237E+00  0.183E+00  0.180E+00
  16.205  0.401E+00  0.396E+00  0.302E+00  0.299E+00
  16.305  0.575E+00  0.567E+00  0.445E+00  0.438E+00
  16.405  0.813E+00  0.811E+00  0.631E+00  0.629E+00
  16.505  0.591E+00  0.602E+00  0.446E+00  0.455E+00
  16.605  0.164E+00  0.172E+00  0.121E+00  0.126E+00
  16.705  0.371E-01  0.369E-01  0.274E-01  0.273E-01
  16.805  0.153E+00  0.147E+00  0.115E+00  0.111E+00
  16.905  0.375E+00  0.371E+00  0.282E+00  0.280E+00
  17.005  0.313E+00  0.320E+00  0.236E+00  0.240E+00
  17.105  0.950E-01  0.990E-01  0.720E-01  0.747E-01
  17.205  0.966E-01  0.927E-01  0.800E-01  0.766E-01
  17.305  0.444E+00  0.432E+00  0.366E+00  0.356E+00
  17.405  0.784E+00  0.783E+00  0.637E+00  0.637E+00
  17.505  0.485E+00  0.497E+00  0.388E+00  0.398E+00
  17.605  0.105E+00  0.110E+00  0.828E-01  0.873E-01
  17.705  0.811E-02  0.877E-02  0.633E-02  0.683E-02
  17.805  0.718E-02  0.673E-02  0.533E-02  0.502E-02
  17.905  0.781E-01  0.747E-01  0.578E-01  0.554E-01
  18.005  0.297E+00  0.291E+00  0.219E+00  0.215E+00
  18.105  0.383E+00  0.386E+00  0.282E+00  0.284E+00
  18.205  0.168E+00  0.174E+00  0.124E+00  0.128E+00
  18.305  0.332E-01  0.342E-01  0.242E-01  0.249E-01
  18.405  0.873E-01  0.844E-01  0.626E-01  0.605E-01
  18.505  0.309E+00  0.305E+00  0.222E+00  0.218E+00
  18.605  0.377E+00  0.380E+00  0.270E+00  0.272E+00
  18.705  0.165E+00  0.169E+00  0.118E+00  0.121E+00
  18.805  0.899E-01  0.898E-01  0.613E-01  0.612E-01
  18.905  0.182E+00  0.181E+00  0.118E+00  0.117E+00
  19.005  0.165E+00  0.166E+00  0.103E+00  0.104E+00
  19.105  0.513E-01  0.523E-01  0.306E-01  0.313E-01
  19.205  0.545E-02  0.563E-02  0.310E-02  0.322E-02
  19.305  0.365E-03  0.372E-03  0.272E-03  0.276E-03
  19.405  0.287E-02  0.285E-02  0.283E-02  0.281E-02
  19.505  0.168E-01  0.167E-01  0.166E-01  0.165E-01
  19.605  0.364E-01  0.361E-01  0.359E-01  0.356E-01
  19.705  0.614E-01  0.591E-01  0.604E-01  0.582E-01
  19.805  0.156E+00  0.153E+00  0.154E+00  0.150E+00
  19.905  0.224E+00  0.224E+00  0.218E+00  0.218E+00
  20.005  0.221E+00  0.221E+00  0.205E+00  0.206E+00
