# E (eV)  ldosup(E)  ldosdw(E) pdosup(E)  pdosdw(E) 
   4.105  0.203E-05  0.201E-05  0.203E-05  0.201E-05
   4.205  0.971E-04  0.969E-04  0.971E-04  0.969E-04
   4.305  0.158E-02  0.158E-02  0.158E-02  0.158E-02
   4.405  0.872E-02  0.877E-02  0.872E-02  0.877E-02
   4.505  0.164E-01  0.165E-01  0.164E-01  0.165E-01
   4.605  0.106E-01  0.107E-01  0.106E-01  0.107E-01
   4.705  0.468E-02  0.480E-02  0.468E-02  0.480E-02
   4.805  0.116E-01  0.121E-01  0.116E-01  0.121E-01
   4.905  0.184E-01  0.191E-01  0.184E-01  0.191E-01
   5.005  0.996E-02  0.104E-01  0.996E-02  0.104E-01
   5.105  0.184E-02  0.192E-02  0.184E-02  0.192E-02
   5.205  0.115E-03  0.120E-03  0.115E-03  0.120E-03
   5.305  0.244E-05  0.256E-05  0.244E-05  0.256E-05
   5.405  0.101E-05  0.962E-06  0.101E-05  0.962E-06
   5.505  0.662E-04  0.637E-04  0.662E-04  0.637E-04
   5.605  0.155E-02  0.151E-02  0.155E-02  0.151E-02
   5.705  0.133E-01  0.131E-01  0.133E-01  0.131E-01
   5.805  0.444E-01  0.447E-01  0.444E-01  0.447E-01
   5.905  0.616E-01  0.637E-01  0.616E-01  0.637E-01
   6.005  0.357E-01  0.378E-01  0.357E-01  0.378E-01
   6.105  0.883E-02  0.945E-02  0.883E-02  0.945E-02
   6.205  0.723E-02  0.745E-02  0.723E-02  0.745E-02
   6.305  0.196E-01  0.202E-01  0.196E-01  0.202E-01
   6.405  0.208E-01  0.216E-01  0.208E-01  0.216E-01
   6.505  0.149E-01  0.156E-01  0.149E-01  0.156E-01
   6.605  0.222E-01  0.236E-01  0.222E-01  0.236E-01
   6.705  0.193E-01  0.207E-01  0.193E-01  0.207E-01
   6.805  0.595E-02  0.646E-02  0.595E-02  0.646E-02
   6.905  0.200E-02  0.152E-02  0.200E-02  0.152E-02
   7.005  0.681E-02  0.495E-02  0.681E-02  0.495E-02
   7.105  0.148E-01  0.180E-01  0.148E-01  0.180E-01
   7.205  0.215E-01  0.470E-01  0.215E-01  0.470E-01
   7.305  0.253E-01  0.613E-01  0.253E-01  0.613E-01
   7.405  0.338E-01  0.444E-01  0.338E-01  0.444E-01
   7.505  0.456E-01  0.450E-01  0.456E-01  0.450E-01
   7.605  0.595E-01  0.602E-01  0.595E-01  0.602E-01
   7.705  0.105E+00  0.960E-01  0.105E+00  0.960E-01
   7.805  0.122E+00  0.131E+00  0.122E+00  0.131E+00
   7.905  0.740E-01  0.960E-01  0.740E-01  0.960E-01
   8.005  0.468E-01  0.406E-01  0.468E-01  0.406E-01
   8.105  0.562E-01  0.255E-01  0.562E-01  0.255E-01
   8.205  0.596E-01  0.351E-01  0.596E-01  0.351E-01
   8.305  0.658E-01  0.454E-01  0.658E-01  0.454E-01
   8.405  0.551E-01  0.354E-01  0.551E-01  0.354E-01
   8.505  0.259E-01  0.142E-01  0.259E-01  0.142E-01
   8.605  0.109E-01  0.729E-02  0.109E-01  0.729E-02
   8.705  0.909E-02  0.101E-01  0.909E-02  0.101E-01
   8.805  0.998E-02  0.119E-01  0.998E-02  0.119E-01
   8.905  0.949E-02  0.107E-01  0.949E-02  0.107E-01
   9.005  0.497E-02  0.785E-02  0.497E-02  0.785E-02
   9.105  0.238E-02  0.850E-02  0.238E-02  0.850E-02
   9.205  0.251E-02  0.882E-02  0.251E-02  0.882E-02
   9.305  0.430E-02  0.984E-02  0.430E-02  0.984E-02
   9.405  0.684E-02  0.125E-01  0.684E-02  0.125E-01
   9.505  0.934E-02  0.115E-01  0.934E-02  0.115E-01
   9.605  0.110E-01  0.784E-02  0.110E-01  0.784E-02
   9.705  0.953E-02  0.586E-02  0.953E-02  0.586E-02
   9.805  0.995E-02  0.692E-02  0.995E-02  0.692E-02
   9.905  0.154E-01  0.125E-01  0.154E-01  0.125E-01
  10.005  0.195E-01  0.162E-01  0.195E-01  0.162E-01
  10.105  0.194E-01  0.121E-01  0.194E-01  0.121E-01
  10.205  0.135E-01  0.868E-02  0.135E-01  0.868E-02
  10.305  0.772E-02  0.736E-02  0.772E-02  0.736E-02
  10.405  0.448E-02  0.437E-02  0.448E-02  0.437E-02
  10.505  0.592E-02  0.375E-02  0.592E-02  0.375E-02
  10.605  0.886E-02  0.575E-02  0.886E-02  0.575E-02
  10.705  0.817E-02  0.554E-02  0.817E-02  0.554E-02
  10.805  0.508E-02  0.378E-02  0.508E-02  0.378E-02
  10.905  0.473E-02  0.374E-02  0.473E-02  0.374E-02
  11.005  0.647E-02  0.350E-02  0.647E-02  0.350E-02
  11.105  0.554E-02  0.215E-02  0.554E-02  0.215E-02
  11.205  0.469E-02  0.243E-02  0.469E-02  0.243E-02
  11.305  0.487E-02  0.457E-02  0.487E-02  0.457E-02
  11.405  0.566E-02  0.762E-02  0.566E-02  0.762E-02
  11.505  0.421E-02  0.717E-02  0.421E-02  0.717E-02
  11.605  0.202E-02  0.454E-02  0.202E-02  0.454E-02
  11.705  0.335E-02  0.667E-02  0.335E-02  0.667E-02
  11.805  0.728E-02  0.115E-01  0.728E-02  0.115E-01
  11.905  0.725E-02  0.105E-01  0.725E-02  0.105E-01
  12.005  0.292E-02  0.561E-02  0.292E-02  0.561E-02
  12.105  0.632E-03  0.232E-02  0.632E-03  0.232E-02
  12.205  0.827E-03  0.175E-02  0.827E-03  0.175E-02
  12.305  0.162E-02  0.283E-02  0.162E-02  0.283E-02
  12.405  0.170E-02  0.273E-02  0.170E-02  0.273E-02
  12.505  0.177E-02  0.187E-02  0.177E-02  0.187E-02
  12.605  0.172E-02  0.131E-02  0.172E-02  0.131E-02
  12.705  0.104E-02  0.905E-03  0.104E-02  0.905E-03
  12.805  0.131E-02  0.116E-02  0.131E-02  0.116E-02
  12.905  0.541E-02  0.450E-02  0.541E-02  0.450E-02
  13.005  0.140E-01  0.125E-01  0.140E-01  0.125E-01
  13.105  0.239E-01  0.243E-01  0.239E-01  0.243E-01
  13.205  0.290E-01  0.326E-01  0.290E-01  0.326E-01
  13.305  0.192E-01  0.228E-01  0.192E-01  0.228E-01
  13.405  0.109E-01  0.124E-01  0.109E-01  0.124E-01
  13.505  0.825E-02  0.903E-02  0.825E-02  0.903E-02
  13.605  0.329E-02  0.374E-02  0.329E-02  0.374E-02
  13.705  0.212E-02  0.266E-02  0.212E-02  0.266E-02
  13.805  0.930E-02  0.114E-01  0.930E-02  0.114E-01
  13.905  0.191E-01  0.212E-01  0.191E-01  0.212E-01
  14.005  0.156E-01  0.147E-01  0.156E-01  0.147E-01
  14.105  0.559E-02  0.438E-02  0.559E-02  0.438E-02
  14.205  0.432E-02  0.382E-02  0.432E-02  0.382E-02
  14.305  0.996E-02  0.967E-02  0.996E-02  0.967E-02
  14.405  0.922E-02  0.936E-02  0.922E-02  0.936E-02
  14.505  0.295E-02  0.310E-02  0.295E-02  0.310E-02
  14.605  0.103E-02  0.940E-03  0.103E-02  0.940E-03
  14.705  0.693E-02  0.602E-02  0.693E-02  0.602E-02
  14.805  0.229E-01  0.207E-01  0.229E-01  0.207E-01
  14.905  0.258E-01  0.242E-01  0.258E-01  0.242E-01
  15.005  0.987E-02  0.960E-02  0.987E-02  0.960E-02
  15.105  0.129E-02  0.130E-02  0.129E-02  0.130E-02
  15.205  0.783E-04  0.785E-04  0.783E-04  0.785E-04
  15.305  0.460E-03  0.427E-03  0.460E-03  0.427E-03
  15.405  0.343E-02  0.327E-02  0.343E-02  0.327E-02
  15.505  0.871E-02  0.852E-02  0.871E-02  0.852E-02
  15.605  0.751E-02  0.755E-02  0.751E-02  0.755E-02
  15.705  0.220E-02  0.227E-02  0.220E-02  0.227E-02
  15.805  0.234E-03  0.247E-03  0.234E-03  0.247E-03
  15.905  0.379E-03  0.347E-03  0.379E-03  0.347E-03
  16.005  0.304E-02  0.281E-02  0.304E-02  0.281E-02
  16.105  0.854E-02  0.801E-02  0.854E-02  0.801E-02
  16.205  0.984E-02  0.940E-02  0.984E-02  0.940E-02
  16.305  0.138E-01  0.138E-01  0.138E-01  0.138E-01
  16.405  0.245E-01  0.255E-01  0.245E-01  0.255E-01
  16.505  0.189E-01  0.203E-01  0.189E-01  0.203E-01
  16.605  0.532E-02  0.593E-02  0.532E-02  0.593E-02
  16.705  0.186E-02  0.273E-02  0.186E-02  0.273E-02
  16.805  0.975E-02  0.160E-01  0.975E-02  0.160E-01
  16.905  0.240E-01  0.405E-01  0.240E-01  0.405E-01
  17.005  0.200E-01  0.349E-01  0.200E-01  0.349E-01
  17.105  0.629E-02  0.107E-01  0.629E-02  0.107E-01
  17.205  0.945E-02  0.855E-02  0.945E-02  0.855E-02
  17.305  0.455E-01  0.385E-01  0.455E-01  0.385E-01
  17.405  0.812E-01  0.688E-01  0.812E-01  0.688E-01
  17.505  0.508E-01  0.430E-01  0.508E-01  0.430E-01
  17.605  0.111E-01  0.942E-02  0.111E-01  0.942E-02
  17.705  0.857E-03  0.733E-03  0.857E-03  0.733E-03
  17.805  0.361E-03  0.408E-03  0.361E-03  0.408E-03
  17.905  0.380E-02  0.446E-02  0.380E-02  0.446E-02
  18.005  0.145E-01  0.174E-01  0.145E-01  0.174E-01
  18.105  0.187E-01  0.230E-01  0.187E-01  0.230E-01
  18.205  0.819E-02  0.104E-01  0.819E-02  0.104E-01
  18.305  0.122E-02  0.158E-02  0.122E-02  0.158E-02
  18.405  0.625E-04  0.832E-04  0.625E-04  0.832E-04
  18.505  0.432E-05  0.594E-05  0.432E-05  0.594E-05
  18.605  0.415E-05  0.573E-05  0.415E-05  0.573E-05
  18.705  0.553E-05  0.536E-05  0.553E-05  0.536E-05
  18.805  0.306E-04  0.242E-04  0.306E-04  0.242E-04
  18.905  0.809E-04  0.647E-04  0.809E-04  0.647E-04
  19.005  0.735E-04  0.600E-04  0.735E-04  0.600E-04
  19.105  0.228E-04  0.190E-04  0.228E-04  0.190E-04
  19.205  0.378E-05  0.338E-05  0.378E-05  0.338E-05
  19.305  0.685E-04  0.671E-04  0.685E-04  0.671E-04
  19.405  0.117E-02  0.115E-02  0.117E-02  0.115E-02
  19.505  0.683E-02  0.675E-02  0.683E-02  0.675E-02
  19.605  0.145E-01  0.144E-01  0.145E-01  0.144E-01
  19.705  0.212E-01  0.213E-01  0.212E-01  0.213E-01
  19.805  0.482E-01  0.507E-01  0.482E-01  0.507E-01
  19.905  0.595E-01  0.650E-01  0.595E-01  0.650E-01
  20.005  0.260E-01  0.294E-01  0.260E-01  0.294E-01
