# E (eV)  ldosup(E)  ldosdw(E) pdosup(E)  pdosdw(E)  pdosup(E)  pdosdw(E)  pdosup(E)  pdosdw(E)  pdosup(E)  pdosdw(E)  pdosup(E)  pdosdw(E) 
   4.105  0.831E-11  0.787E-11  0.475E-11  0.216E-11  0.174E-11  0.139E-11  0.581E-12  0.465E-12  0.307E-12  0.963E-12  0.920E-12  0.289E-11
   4.205  0.398E-09  0.379E-09  0.228E-09  0.104E-09  0.836E-10  0.671E-10  0.279E-10  0.224E-10  0.147E-10  0.463E-10  0.441E-10  0.139E-09
   4.305  0.648E-08  0.618E-08  0.371E-08  0.169E-08  0.136E-08  0.110E-08  0.453E-09  0.365E-09  0.239E-09  0.757E-09  0.718E-09  0.227E-08
   4.405  0.359E-07  0.343E-07  0.205E-07  0.940E-08  0.755E-08  0.608E-08  0.252E-08  0.203E-08  0.135E-08  0.420E-08  0.404E-08  0.126E-07
   4.505  0.873E-07  0.697E-07  0.403E-07  0.182E-07  0.184E-07  0.126E-07  0.615E-08  0.421E-08  0.561E-08  0.866E-08  0.168E-07  0.260E-07
   4.605  0.871E-06  0.256E-06  0.103E-06  0.342E-07  0.188E-06  0.569E-07  0.625E-07  0.190E-07  0.130E-06  0.364E-07  0.389E-06  0.109E-06
   4.705  0.115E-04  0.299E-05  0.109E-05  0.322E-06  0.248E-05  0.692E-06  0.827E-06  0.231E-06  0.178E-05  0.437E-06  0.533E-05  0.131E-05
   4.805  0.542E-04  0.141E-04  0.512E-05  0.151E-05  0.117E-04  0.326E-05  0.389E-05  0.109E-05  0.837E-05  0.206E-05  0.251E-04  0.618E-05
   4.905  0.866E-04  0.226E-04  0.819E-05  0.242E-05  0.187E-04  0.523E-05  0.622E-05  0.174E-05  0.134E-04  0.330E-05  0.402E-04  0.991E-05
   5.005  0.470E-04  0.123E-04  0.445E-05  0.132E-05  0.101E-04  0.285E-05  0.338E-05  0.949E-06  0.727E-05  0.180E-05  0.218E-04  0.539E-05
   5.105  0.867E-05  0.227E-05  0.820E-06  0.243E-06  0.187E-05  0.526E-06  0.623E-06  0.175E-06  0.134E-05  0.332E-06  0.402E-05  0.996E-06
   5.205  0.542E-06  0.143E-06  0.513E-07  0.152E-07  0.117E-06  0.330E-07  0.390E-07  0.110E-07  0.838E-07  0.208E-07  0.251E-06  0.625E-07
   5.305  0.120E-07  0.334E-08  0.118E-08  0.383E-09  0.258E-08  0.766E-09  0.976E-09  0.344E-09  0.182E-08  0.462E-09  0.545E-08  0.138E-08
   5.405  0.962E-07  0.594E-07  0.174E-07  0.116E-07  0.201E-07  0.125E-07  0.289E-07  0.215E-07  0.788E-08  0.391E-08  0.220E-07  0.986E-08
   5.505  0.655E-05  0.407E-05  0.121E-05  0.826E-06  0.135E-05  0.836E-06  0.192E-05  0.144E-05  0.567E-06  0.298E-06  0.151E-05  0.676E-06
   5.605  0.160E-03  0.100E-03  0.310E-04  0.219E-04  0.318E-04  0.195E-04  0.443E-04  0.332E-04  0.156E-04  0.898E-05  0.375E-04  0.166E-04
   5.705  0.149E-02  0.936E-03  0.315E-03  0.232E-03  0.277E-03  0.163E-03  0.364E-03  0.272E-03  0.175E-03  0.113E-03  0.361E-03  0.155E-03
   5.805  0.569E-02  0.357E-02  0.134E-02  0.103E-02  0.956E-03  0.521E-03  0.113E-02  0.829E-03  0.826E-03  0.590E-03  0.144E-02  0.594E-03
   5.905  0.915E-02  0.572E-02  0.235E-02  0.188E-02  0.139E-02  0.684E-03  0.143E-02  0.101E-02  0.157E-02  0.119E-02  0.242E-02  0.955E-03
   6.005  0.591E-02  0.369E-02  0.159E-02  0.131E-02  0.845E-03  0.379E-03  0.760E-03  0.522E-03  0.111E-02  0.865E-03  0.161E-02  0.618E-03
   6.105  0.160E-02  0.104E-02  0.389E-03  0.325E-03  0.256E-03  0.135E-03  0.224E-03  0.158E-03  0.307E-03  0.249E-03  0.427E-03  0.174E-03
   6.205  0.172E-02  0.146E-02  0.343E-04  0.320E-04  0.539E-03  0.468E-03  0.553E-03  0.444E-03  0.283E-03  0.281E-03  0.313E-03  0.233E-03
   6.305  0.479E-02  0.417E-02  0.108E-04  0.188E-04  0.156E-02  0.139E-02  0.161E-02  0.131E-02  0.775E-03  0.791E-03  0.836E-03  0.663E-03
   6.405  0.520E-02  0.460E-02  0.163E-03  0.158E-03  0.160E-02  0.145E-02  0.165E-02  0.135E-02  0.900E-03  0.933E-03  0.888E-03  0.719E-03
   6.505  0.461E-02  0.448E-02  0.125E-02  0.116E-02  0.748E-03  0.751E-03  0.758E-03  0.626E-03  0.122E-02  0.134E-02  0.634E-03  0.594E-03
   6.605  0.798E-02  0.827E-02  0.329E-02  0.310E-02  0.606E-03  0.762E-03  0.597E-03  0.503E-03  0.255E-02  0.290E-02  0.941E-03  0.998E-03
   6.705  0.699E-02  0.738E-02  0.296E-02  0.282E-02  0.490E-03  0.644E-03  0.480E-03  0.411E-03  0.225E-02  0.262E-02  0.816E-03  0.887E-03
   6.805  0.229E-02  0.234E-02  0.918E-03  0.879E-03  0.185E-03  0.212E-03  0.158E-03  0.131E-03  0.709E-03  0.818E-03  0.323E-03  0.301E-03
   6.905  0.253E-02  0.114E-02  0.329E-03  0.193E-03  0.522E-03  0.229E-03  0.206E-03  0.911E-04  0.418E-03  0.226E-03  0.105E-02  0.402E-03
   7.005  0.129E-01  0.615E-02  0.124E-02  0.626E-03  0.294E-02  0.150E-02  0.171E-02  0.740E-03  0.186E-02  0.126E-02  0.513E-02  0.203E-02
   7.105  0.481E-01  0.343E-01  0.416E-02  0.320E-02  0.120E-01  0.881E-02  0.125E-01  0.547E-02  0.596E-02  0.957E-02  0.135E-01  0.722E-02
   7.205  0.144E+00  0.126E+00  0.127E-01  0.125E-01  0.373E-01  0.325E-01  0.471E-01  0.207E-01  0.158E-01  0.385E-01  0.311E-01  0.218E-01
   7.305  0.233E+00  0.206E+00  0.223E-01  0.227E-01  0.599E-01  0.518E-01  0.716E-01  0.356E-01  0.273E-01  0.602E-01  0.515E-01  0.353E-01
   7.405  0.270E+00  0.208E+00  0.294E-01  0.285E-01  0.667E-01  0.487E-01  0.666E-01  0.474E-01  0.408E-01  0.472E-01  0.662E-01  0.362E-01
   7.505  0.366E+00  0.278E+00  0.459E-01  0.457E-01  0.868E-01  0.597E-01  0.904E-01  0.661E-01  0.590E-01  0.612E-01  0.837E-01  0.450E-01
   7.605  0.397E+00  0.360E+00  0.543E-01  0.707E-01  0.944E-01  0.704E-01  0.980E-01  0.739E-01  0.657E-01  0.921E-01  0.851E-01  0.530E-01
   7.705  0.420E+00  0.455E+00  0.677E-01  0.109E+00  0.956E-01  0.796E-01  0.859E-01  0.910E-01  0.745E-01  0.113E+00  0.968E-01  0.626E-01
   7.805  0.582E+00  0.589E+00  0.934E-01  0.133E+00  0.126E+00  0.111E+00  0.121E+00  0.107E+00  0.976E-01  0.150E+00  0.144E+00  0.883E-01
   7.905  0.701E+00  0.551E+00  0.117E+00  0.107E+00  0.149E+00  0.119E+00  0.150E+00  0.903E-01  0.121E+00  0.144E+00  0.165E+00  0.916E-01
   8.005  0.703E+00  0.400E+00  0.132E+00  0.736E-01  0.141E+00  0.885E-01  0.122E+00  0.645E-01  0.152E+00  0.986E-01  0.157E+00  0.748E-01
   8.105  0.742E+00  0.385E+00  0.134E+00  0.813E-01  0.151E+00  0.730E-01  0.961E-01  0.662E-01  0.176E+00  0.889E-01  0.185E+00  0.756E-01
   8.205  0.844E+00  0.473E+00  0.154E+00  0.112E+00  0.167E+00  0.805E-01  0.989E-01  0.831E-01  0.185E+00  0.108E+00  0.238E+00  0.900E-01
   8.305  0.112E+01  0.676E+00  0.204E+00  0.142E+00  0.221E+00  0.129E+00  0.177E+00  0.141E+00  0.231E+00  0.143E+00  0.284E+00  0.121E+00
   8.405  0.113E+01  0.776E+00  0.188E+00  0.133E+00  0.241E+00  0.175E+00  0.249E+00  0.192E+00  0.210E+00  0.147E+00  0.239E+00  0.128E+00
   8.505  0.733E+00  0.520E+00  0.126E+00  0.775E-01  0.152E+00  0.126E+00  0.179E+00  0.132E+00  0.124E+00  0.957E-01  0.151E+00  0.884E-01
   8.605  0.601E+00  0.359E+00  0.134E+00  0.759E-01  0.980E-01  0.693E-01  0.115E+00  0.574E-01  0.114E+00  0.917E-01  0.140E+00  0.649E-01
   8.705  0.697E+00  0.457E+00  0.152E+00  0.118E+00  0.119E+00  0.762E-01  0.109E+00  0.564E-01  0.138E+00  0.133E+00  0.179E+00  0.729E-01
   8.805  0.772E+00  0.496E+00  0.180E+00  0.116E+00  0.135E+00  0.927E-01  0.127E+00  0.945E-01  0.129E+00  0.117E+00  0.201E+00  0.753E-01
   8.905  0.766E+00  0.427E+00  0.182E+00  0.895E-01  0.130E+00  0.847E-01  0.135E+00  0.104E+00  0.118E+00  0.823E-01  0.202E+00  0.663E-01
   9.005  0.840E+00  0.426E+00  0.178E+00  0.930E-01  0.142E+00  0.799E-01  0.131E+00  0.928E-01  0.153E+00  0.872E-01  0.236E+00  0.730E-01
   9.105  0.112E+01  0.555E+00  0.233E+00  0.112E+00  0.201E+00  0.115E+00  0.197E+00  0.120E+00  0.209E+00  0.111E+00  0.276E+00  0.970E-01
   9.205  0.113E+01  0.619E+00  0.234E+00  0.102E+00  0.227E+00  0.151E+00  0.248E+00  0.143E+00  0.191E+00  0.122E+00  0.226E+00  0.102E+00
   9.305  0.948E+00  0.597E+00  0.213E+00  0.862E-01  0.183E+00  0.142E+00  0.212E+00  0.135E+00  0.169E+00  0.138E+00  0.172E+00  0.965E-01
   9.405  0.903E+00  0.599E+00  0.231E+00  0.129E+00  0.145E+00  0.103E+00  0.172E+00  0.110E+00  0.188E+00  0.163E+00  0.167E+00  0.940E-01
   9.505  0.906E+00  0.677E+00  0.255E+00  0.213E+00  0.135E+00  0.811E-01  0.158E+00  0.106E+00  0.194E+00  0.181E+00  0.164E+00  0.963E-01
   9.605  0.846E+00  0.726E+00  0.253E+00  0.263E+00  0.123E+00  0.732E-01  0.151E+00  0.107E+00  0.168E+00  0.178E+00  0.151E+00  0.105E+00
   9.705  0.785E+00  0.693E+00  0.223E+00  0.257E+00  0.118E+00  0.818E-01  0.120E+00  0.102E+00  0.169E+00  0.151E+00  0.155E+00  0.101E+00
   9.805  0.919E+00  0.694E+00  0.268E+00  0.191E+00  0.137E+00  0.129E+00  0.117E+00  0.141E+00  0.232E+00  0.123E+00  0.165E+00  0.110E+00
   9.905  0.116E+01  0.101E+01  0.327E+00  0.184E+00  0.187E+00  0.225E+00  0.162E+00  0.250E+00  0.303E+00  0.167E+00  0.177E+00  0.183E+00
  10.005  0.124E+01  0.135E+01  0.277E+00  0.239E+00  0.236E+00  0.279E+00  0.204E+00  0.302E+00  0.315E+00  0.264E+00  0.204E+00  0.271E+00
  10.105  0.108E+01  0.131E+01  0.204E+00  0.276E+00  0.214E+00  0.220E+00  0.187E+00  0.238E+00  0.257E+00  0.302E+00  0.214E+00  0.269E+00
  10.205  0.942E+00  0.118E+01  0.212E+00  0.310E+00  0.161E+00  0.165E+00  0.134E+00  0.187E+00  0.226E+00  0.302E+00  0.208E+00  0.215E+00
  10.305  0.814E+00  0.106E+01  0.218E+00  0.338E+00  0.129E+00  0.147E+00  0.104E+00  0.149E+00  0.202E+00  0.265E+00  0.161E+00  0.165E+00
  10.405  0.708E+00  0.862E+00  0.174E+00  0.255E+00  0.137E+00  0.148E+00  0.123E+00  0.139E+00  0.159E+00  0.183E+00  0.116E+00  0.136E+00
  10.505  0.916E+00  0.957E+00  0.168E+00  0.191E+00  0.202E+00  0.207E+00  0.213E+00  0.221E+00  0.179E+00  0.161E+00  0.154E+00  0.178E+00
  10.605  0.109E+01  0.121E+01  0.176E+00  0.216E+00  0.247E+00  0.267E+00  0.278E+00  0.273E+00  0.190E+00  0.185E+00  0.195E+00  0.265E+00
  10.705  0.980E+00  0.113E+01  0.160E+00  0.195E+00  0.222E+00  0.234E+00  0.274E+00  0.221E+00  0.145E+00  0.186E+00  0.179E+00  0.290E+00
  10.805  0.104E+01  0.926E+00  0.154E+00  0.148E+00  0.250E+00  0.190E+00  0.312E+00  0.185E+00  0.142E+00  0.177E+00  0.183E+00  0.228E+00
  10.905  0.117E+01  0.104E+01  0.131E+00  0.135E+00  0.315E+00  0.246E+00  0.348E+00  0.235E+00  0.169E+00  0.198E+00  0.207E+00  0.222E+00
  11.005  0.113E+01  0.121E+01  0.102E+00  0.131E+00  0.311E+00  0.302E+00  0.302E+00  0.297E+00  0.199E+00  0.213E+00  0.211E+00  0.269E+00
  11.105  0.105E+01  0.125E+01  0.921E-01  0.127E+00  0.280E+00  0.320E+00  0.267E+00  0.315E+00  0.212E+00  0.221E+00  0.195E+00  0.265E+00
  11.205  0.997E+00  0.125E+01  0.794E-01  0.117E+00  0.274E+00  0.340E+00  0.272E+00  0.329E+00  0.190E+00  0.220E+00  0.181E+00  0.244E+00
  11.305  0.781E+00  0.128E+01  0.774E-01  0.152E+00  0.205E+00  0.319E+00  0.203E+00  0.323E+00  0.147E+00  0.224E+00  0.148E+00  0.259E+00
  11.405  0.587E+00  0.130E+01  0.788E-01  0.201E+00  0.131E+00  0.294E+00  0.118E+00  0.279E+00  0.134E+00  0.245E+00  0.125E+00  0.283E+00
  11.505  0.651E+00  0.110E+01  0.744E-01  0.167E+00  0.150E+00  0.256E+00  0.122E+00  0.231E+00  0.155E+00  0.220E+00  0.149E+00  0.226E+00
  11.605  0.895E+00  0.985E+00  0.769E-01  0.140E+00  0.235E+00  0.237E+00  0.206E+00  0.224E+00  0.175E+00  0.201E+00  0.202E+00  0.183E+00
  11.705  0.124E+01  0.113E+01  0.990E-01  0.167E+00  0.338E+00  0.263E+00  0.321E+00  0.228E+00  0.209E+00  0.261E+00  0.278E+00  0.214E+00
  11.805  0.136E+01  0.110E+01  0.141E+00  0.183E+00  0.356E+00  0.243E+00  0.340E+00  0.185E+00  0.228E+00  0.283E+00  0.292E+00  0.204E+00
  11.905  0.122E+01  0.911E+00  0.208E+00  0.200E+00  0.291E+00  0.179E+00  0.274E+00  0.156E+00  0.200E+00  0.229E+00  0.250E+00  0.147E+00
  12.005  0.127E+01  0.933E+00  0.328E+00  0.255E+00  0.239E+00  0.165E+00  0.258E+00  0.185E+00  0.206E+00  0.197E+00  0.240E+00  0.131E+00
  12.105  0.121E+01  0.822E+00  0.377E+00  0.217E+00  0.166E+00  0.156E+00  0.230E+00  0.166E+00  0.240E+00  0.172E+00  0.192E+00  0.111E+00
  12.205  0.879E+00  0.602E+00  0.290E+00  0.139E+00  0.105E+00  0.123E+00  0.145E+00  0.110E+00  0.220E+00  0.146E+00  0.118E+00  0.841E-01
  12.305  0.665E+00  0.594E+00  0.228E+00  0.134E+00  0.753E-01  0.112E+00  0.928E-01  0.132E+00  0.179E+00  0.132E+00  0.888E-01  0.846E-01
  12.405  0.523E+00  0.904E+00  0.178E+00  0.226E+00  0.547E-01  0.155E+00  0.763E-01  0.250E+00  0.141E+00  0.136E+00  0.724E-01  0.139E+00
  12.505  0.430E+00  0.133E+01  0.149E+00  0.368E+00  0.463E-01  0.215E+00  0.588E-01  0.294E+00  0.115E+00  0.164E+00  0.614E-01  0.285E+00
  12.605  0.376E+00  0.128E+01  0.142E+00  0.322E+00  0.409E-01  0.218E+00  0.436E-01  0.214E+00  0.983E-01  0.160E+00  0.514E-01  0.370E+00
  12.705  0.268E+00  0.835E+00  0.103E+00  0.148E+00  0.258E-01  0.154E+00  0.252E-01  0.109E+00  0.781E-01  0.116E+00  0.354E-01  0.307E+00
  12.805  0.211E+00  0.600E+00  0.772E-01  0.709E-01  0.203E-01  0.121E+00  0.180E-01  0.625E-01  0.670E-01  0.911E-01  0.287E-01  0.255E+00
  12.905  0.185E+00  0.482E+00  0.507E-01  0.601E-01  0.281E-01  0.102E+00  0.272E-01  0.657E-01  0.509E-01  0.693E-01  0.285E-01  0.185E+00
  13.005  0.219E+00  0.495E+00  0.390E-01  0.853E-01  0.484E-01  0.104E+00  0.477E-01  0.105E+00  0.471E-01  0.650E-01  0.372E-01  0.137E+00
  13.105  0.288E+00  0.587E+00  0.540E-01  0.119E+00  0.624E-01  0.110E+00  0.611E-01  0.126E+00  0.607E-01  0.838E-01  0.493E-01  0.149E+00
  13.205  0.285E+00  0.545E+00  0.589E-01  0.117E+00  0.584E-01  0.930E-01  0.593E-01  0.109E+00  0.575E-01  0.828E-01  0.512E-01  0.144E+00
  13.305  0.166E+00  0.318E+00  0.328E-01  0.657E-01  0.340E-01  0.530E-01  0.349E-01  0.578E-01  0.299E-01  0.480E-01  0.343E-01  0.933E-01
  13.405  0.703E-01  0.127E+00  0.114E-01  0.217E-01  0.154E-01  0.227E-01  0.162E-01  0.212E-01  0.931E-02  0.177E-01  0.179E-01  0.436E-01
  13.505  0.423E-01  0.685E-01  0.608E-02  0.968E-02  0.980E-02  0.140E-01  0.107E-01  0.117E-01  0.411E-02  0.846E-02  0.116E-01  0.246E-01
  13.605  0.158E-01  0.260E-01  0.229E-02  0.369E-02  0.372E-02  0.558E-02  0.403E-02  0.451E-02  0.146E-02  0.308E-02  0.432E-02  0.912E-02
  13.705  0.369E-02  0.600E-02  0.461E-03  0.650E-03  0.898E-03  0.148E-02  0.941E-03  0.120E-02  0.543E-03  0.902E-03  0.845E-03  0.177E-02
  13.805  0.122E-01  0.166E-01  0.161E-02  0.122E-02  0.280E-02  0.444E-02  0.231E-02  0.328E-02  0.332E-02  0.361E-02  0.214E-02  0.409E-02
  13.905  0.377E-01  0.470E-01  0.617E-02  0.468E-02  0.821E-02  0.117E-01  0.516E-02  0.714E-02  0.115E-01  0.108E-01  0.661E-02  0.127E-01
  14.005  0.449E-01  0.531E-01  0.828E-02  0.631E-02  0.978E-02  0.127E-01  0.485E-02  0.639E-02  0.143E-01  0.126E-01  0.769E-02  0.152E-01
  14.105  0.215E-01  0.246E-01  0.426E-02  0.332E-02  0.470E-02  0.570E-02  0.197E-02  0.247E-02  0.695E-02  0.605E-02  0.361E-02  0.706E-02
  14.205  0.200E-01  0.210E-01  0.440E-02  0.409E-02  0.345E-02  0.393E-02  0.126E-02  0.145E-02  0.718E-02  0.643E-02  0.372E-02  0.508E-02
  14.305  0.466E-01  0.502E-01  0.105E-01  0.104E-01  0.834E-02  0.947E-02  0.297E-02  0.339E-02  0.163E-01  0.156E-01  0.849E-02  0.114E-01
  14.405  0.432E-01  0.485E-01  0.983E-02  0.996E-02  0.852E-02  0.971E-02  0.300E-02  0.345E-02  0.144E-01  0.147E-01  0.748E-02  0.108E-01
  14.505  0.138E-01  0.161E-01  0.317E-02  0.328E-02  0.298E-02  0.341E-02  0.104E-02  0.121E-02  0.432E-02  0.470E-02  0.225E-02  0.346E-02
  14.605  0.346E-02  0.370E-02  0.837E-03  0.855E-03  0.638E-03  0.692E-03  0.298E-03  0.333E-03  0.112E-02  0.106E-02  0.569E-03  0.759E-03
  14.705  0.192E-01  0.194E-01  0.482E-02  0.495E-02  0.298E-02  0.306E-02  0.180E-02  0.200E-02  0.640E-02  0.551E-02  0.322E-02  0.383E-02
  14.805  0.633E-01  0.663E-01  0.160E-01  0.169E-01  0.104E-01  0.109E-01  0.626E-02  0.711E-02  0.204E-01  0.185E-01  0.103E-01  0.129E-01
  14.905  0.713E-01  0.776E-01  0.182E-01  0.197E-01  0.125E-01  0.133E-01  0.742E-02  0.861E-02  0.220E-01  0.211E-01  0.112E-01  0.149E-01
  15.005  0.273E-01  0.308E-01  0.703E-02  0.778E-02  0.507E-02  0.552E-02  0.299E-02  0.354E-02  0.810E-02  0.818E-02  0.415E-02  0.582E-02
  15.105  0.357E-02  0.417E-02  0.927E-03  0.105E-02  0.702E-03  0.776E-03  0.411E-03  0.495E-03  0.101E-02  0.108E-02  0.521E-03  0.772E-03
  15.205  0.225E-03  0.258E-03  0.531E-04  0.581E-04  0.470E-04  0.518E-04  0.245E-04  0.290E-04  0.654E-04  0.690E-04  0.351E-04  0.505E-04
  15.305  0.146E-02  0.152E-02  0.260E-03  0.243E-03  0.306E-03  0.328E-03  0.117E-03  0.123E-03  0.491E-03  0.465E-03  0.283E-03  0.357E-03
  15.405  0.109E-01  0.116E-01  0.201E-02  0.196E-02  0.227E-02  0.247E-02  0.862E-03  0.926E-03  0.361E-02  0.351E-02  0.212E-02  0.275E-02
  15.505  0.276E-01  0.303E-01  0.528E-02  0.538E-02  0.571E-02  0.633E-02  0.217E-02  0.237E-02  0.903E-02  0.899E-02  0.539E-02  0.722E-02
  15.605  0.238E-01  0.268E-01  0.472E-02  0.501E-02  0.488E-02  0.551E-02  0.185E-02  0.206E-02  0.767E-02  0.782E-02  0.465E-02  0.644E-02
  15.705  0.696E-02  0.809E-02  0.143E-02  0.159E-02  0.142E-02  0.163E-02  0.538E-03  0.609E-03  0.221E-02  0.231E-02  0.137E-02  0.195E-02
  15.805  0.714E-03  0.854E-03  0.151E-03  0.174E-03  0.144E-03  0.169E-03  0.546E-04  0.629E-04  0.222E-03  0.239E-03  0.142E-03  0.209E-03
  15.905  0.549E-03  0.667E-03  0.108E-03  0.111E-03  0.107E-03  0.136E-03  0.459E-04  0.556E-04  0.150E-03  0.155E-03  0.138E-03  0.210E-03
  16.005  0.486E-02  0.590E-02  0.100E-02  0.105E-02  0.931E-03  0.117E-02  0.564E-03  0.662E-03  0.120E-02  0.125E-02  0.117E-02  0.177E-02
  16.105  0.187E-01  0.225E-01  0.412E-02  0.439E-02  0.351E-02  0.435E-02  0.342E-02  0.392E-02  0.372E-02  0.392E-02  0.395E-02  0.589E-02
  16.205  0.386E-01  0.454E-01  0.878E-02  0.951E-02  0.714E-02  0.860E-02  0.959E-02  0.110E-01  0.628E-02  0.658E-02  0.684E-02  0.963E-02
  16.305  0.661E-01  0.773E-01  0.142E-01  0.156E-01  0.126E-01  0.150E-01  0.152E-01  0.179E-01  0.128E-01  0.133E-01  0.113E-01  0.155E-01
  16.405  0.961E-01  0.117E+00  0.192E-01  0.222E-01  0.197E-01  0.239E-01  0.205E-01  0.249E-01  0.196E-01  0.214E-01  0.172E-01  0.250E-01
  16.505  0.691E-01  0.890E-01  0.133E-01  0.163E-01  0.149E-01  0.188E-01  0.161E-01  0.203E-01  0.123E-01  0.144E-01  0.125E-01  0.192E-01
  16.605  0.190E-01  0.257E-01  0.356E-02  0.464E-02  0.425E-02  0.554E-02  0.493E-02  0.644E-02  0.286E-02  0.357E-02  0.344E-02  0.550E-02
  16.705  0.433E-02  0.558E-02  0.756E-03  0.108E-02  0.968E-03  0.112E-02  0.127E-02  0.153E-02  0.443E-03  0.603E-03  0.890E-03  0.125E-02
  16.805  0.180E-01  0.223E-01  0.304E-02  0.455E-02  0.399E-02  0.413E-02  0.544E-02  0.624E-02  0.149E-02  0.212E-02  0.406E-02  0.521E-02
  16.905  0.442E-01  0.562E-01  0.746E-02  0.115E-01  0.983E-02  0.106E-01  0.133E-01  0.159E-01  0.366E-02  0.530E-02  0.996E-02  0.130E-01
  17.005  0.370E-01  0.484E-01  0.626E-02  0.988E-02  0.826E-02  0.920E-02  0.111E-01  0.138E-01  0.307E-02  0.453E-02  0.832E-02  0.110E-01
  17.105  0.111E-01  0.148E-01  0.194E-02  0.303E-02  0.245E-02  0.284E-02  0.321E-02  0.415E-02  0.105E-02  0.148E-02  0.248E-02  0.333E-02
  17.205  0.101E-01  0.116E-01  0.242E-02  0.256E-02  0.169E-02  0.206E-02  0.157E-02  0.181E-02  0.246E-02  0.251E-02  0.199E-02  0.272E-02
  17.305  0.457E-01  0.537E-01  0.113E-01  0.118E-01  0.757E-02  0.962E-02  0.728E-02  0.823E-02  0.109E-01  0.114E-01  0.866E-02  0.126E-01
  17.405  0.800E-01  0.982E-01  0.200E-01  0.215E-01  0.136E-01  0.182E-01  0.144E-01  0.168E-01  0.172E-01  0.191E-01  0.148E-01  0.227E-01
  17.505  0.490E-01  0.630E-01  0.123E-01  0.137E-01  0.851E-02  0.120E-01  0.989E-02  0.118E-01  0.946E-02  0.110E-01  0.889E-02  0.144E-01
  17.605  0.105E-01  0.141E-01  0.264E-02  0.308E-02  0.186E-02  0.278E-02  0.234E-02  0.289E-02  0.182E-02  0.224E-02  0.186E-02  0.316E-02
  17.705  0.805E-03  0.113E-02  0.204E-03  0.248E-03  0.143E-03  0.226E-03  0.193E-03  0.246E-03  0.126E-03  0.162E-03  0.139E-03  0.244E-03
  17.805  0.582E-03  0.615E-03  0.207E-03  0.210E-03  0.637E-04  0.712E-04  0.124E-03  0.126E-03  0.103E-03  0.105E-03  0.856E-04  0.102E-03
  17.905  0.629E-02  0.671E-02  0.225E-02  0.233E-02  0.678E-03  0.757E-03  0.134E-02  0.139E-02  0.112E-02  0.115E-02  0.910E-03  0.108E-02
  18.005  0.239E-01  0.262E-01  0.851E-02  0.904E-02  0.260E-02  0.300E-02  0.515E-02  0.552E-02  0.425E-02  0.449E-02  0.342E-02  0.412E-02
  18.105  0.309E-01  0.346E-01  0.109E-01  0.119E-01  0.339E-02  0.402E-02  0.671E-02  0.743E-02  0.549E-02  0.593E-02  0.437E-02  0.536E-02
  18.205  0.136E-01  0.156E-01  0.479E-02  0.534E-02  0.150E-02  0.184E-02  0.297E-02  0.339E-02  0.241E-02  0.267E-02  0.190E-02  0.237E-02
  18.305  0.256E-02  0.300E-02  0.891E-03  0.100E-02  0.283E-03  0.358E-03  0.508E-03  0.598E-03  0.487E-03  0.540E-03  0.393E-03  0.506E-03
  18.405  0.585E-02  0.685E-02  0.198E-02  0.214E-02  0.627E-03  0.805E-03  0.661E-03  0.804E-03  0.136E-02  0.146E-02  0.121E-02  0.164E-02
  18.505  0.206E-01  0.247E-01  0.708E-02  0.785E-02  0.220E-02  0.288E-02  0.227E-02  0.283E-02  0.479E-02  0.522E-02  0.430E-02  0.589E-02
  18.605  0.252E-01  0.308E-01  0.875E-02  0.996E-02  0.268E-02  0.356E-02  0.275E-02  0.350E-02  0.579E-02  0.645E-02  0.523E-02  0.729E-02
  18.705  0.110E-01  0.138E-01  0.371E-02  0.435E-02  0.123E-02  0.166E-02  0.122E-02  0.158E-02  0.248E-02  0.284E-02  0.236E-02  0.335E-02
  18.805  0.600E-02  0.793E-02  0.841E-03  0.107E-02  0.124E-02  0.161E-02  0.918E-03  0.114E-02  0.113E-02  0.141E-02  0.187E-02  0.270E-02
  18.905  0.122E-01  0.165E-01  0.856E-03  0.122E-02  0.315E-02  0.410E-02  0.207E-02  0.256E-02  0.207E-02  0.269E-02  0.403E-02  0.591E-02
  19.005  0.110E-01  0.151E-01  0.742E-03  0.108E-02  0.311E-02  0.407E-02  0.191E-02  0.240E-02  0.178E-02  0.235E-02  0.349E-02  0.521E-02
  19.105  0.343E-02  0.476E-02  0.225E-03  0.338E-03  0.105E-02  0.138E-02  0.606E-03  0.770E-03  0.523E-03  0.705E-03  0.103E-02  0.156E-02
  19.205  0.365E-03  0.511E-03  0.234E-04  0.361E-04  0.120E-03  0.159E-03  0.655E-04  0.844E-04  0.523E-04  0.719E-04  0.103E-03  0.160E-03
  19.305  0.251E-04  0.360E-04  0.217E-05  0.320E-05  0.734E-05  0.100E-04  0.331E-05  0.442E-05  0.352E-05  0.506E-05  0.875E-05  0.133E-04
  19.405  0.203E-03  0.296E-03  0.229E-04  0.324E-04  0.457E-04  0.651E-04  0.152E-04  0.217E-04  0.298E-04  0.442E-04  0.894E-04  0.132E-03
  19.505  0.119E-02  0.173E-02  0.136E-03  0.192E-03  0.265E-03  0.380E-03  0.892E-04  0.127E-03  0.175E-03  0.259E-03  0.520E-03  0.773E-03
  19.605  0.257E-02  0.367E-02  0.364E-03  0.476E-03  0.541E-03  0.770E-03  0.203E-03  0.278E-03  0.406E-03  0.573E-03  0.106E-02  0.157E-02
  19.705  0.434E-02  0.524E-02  0.131E-02  0.144E-02  0.555E-03  0.735E-03  0.437E-03  0.494E-03  0.951E-03  0.108E-02  0.109E-02  0.149E-02
  19.805  0.111E-01  0.122E-01  0.438E-02  0.475E-02  0.879E-03  0.104E-02  0.125E-02  0.132E-02  0.285E-02  0.302E-02  0.169E-02  0.208E-02
  19.905  0.156E-01  0.173E-01  0.608E-02  0.677E-02  0.130E-02  0.148E-02  0.167E-02  0.179E-02  0.430E-02  0.456E-02  0.223E-02  0.269E-02
  20.005  0.144E-01  0.151E-01  0.484E-02  0.525E-02  0.170E-02  0.176E-02  0.111E-02  0.117E-02  0.476E-02  0.482E-02  0.197E-02  0.216E-02
