# E (eV)  ldosup(E)  ldosdw(E) pdosup(E)  pdosdw(E)  pdosup(E)  pdosdw(E)  pdosup(E)  pdosdw(E)  pdosup(E)  pdosdw(E)  pdosup(E)  pdosdw(E) 
   4.105  0.194E-11  0.300E-11  0.101E-11  0.259E-11  0.253E-12  0.217E-12  0.843E-13  0.723E-13  0.149E-12  0.315E-13  0.448E-12  0.943E-13
   4.205  0.932E-10  0.145E-09  0.484E-10  0.125E-09  0.121E-10  0.104E-10  0.404E-11  0.348E-11  0.716E-11  0.151E-11  0.215E-10  0.454E-11
   4.305  0.152E-08  0.236E-08  0.787E-09  0.203E-08  0.197E-09  0.170E-09  0.657E-10  0.569E-10  0.117E-09  0.248E-10  0.350E-09  0.743E-10
   4.405  0.842E-08  0.133E-07  0.435E-08  0.113E-07  0.110E-08  0.981E-09  0.367E-09  0.328E-09  0.651E-09  0.164E-09  0.195E-08  0.493E-09
   4.505  0.215E-07  0.460E-07  0.878E-08  0.232E-07  0.337E-08  0.638E-08  0.113E-08  0.213E-08  0.205E-08  0.356E-08  0.616E-08  0.107E-07
   4.605  0.247E-06  0.891E-06  0.310E-07  0.953E-07  0.558E-07  0.190E-06  0.186E-07  0.633E-07  0.355E-07  0.136E-06  0.106E-06  0.407E-06
   4.705  0.329E-05  0.122E-04  0.359E-06  0.114E-05  0.757E-06  0.263E-05  0.252E-06  0.875E-06  0.482E-06  0.188E-05  0.144E-05  0.565E-05
   4.805  0.155E-04  0.575E-04  0.168E-05  0.537E-05  0.356E-05  0.124E-04  0.119E-05  0.413E-05  0.227E-05  0.890E-05  0.680E-05  0.267E-04
   4.905  0.248E-04  0.922E-04  0.269E-05  0.861E-05  0.570E-05  0.199E-04  0.190E-05  0.663E-05  0.363E-05  0.143E-04  0.109E-04  0.428E-04
   5.005  0.135E-04  0.502E-04  0.146E-05  0.469E-05  0.309E-05  0.108E-04  0.103E-05  0.361E-05  0.197E-05  0.776E-05  0.591E-05  0.233E-04
   5.105  0.248E-05  0.927E-05  0.270E-06  0.866E-06  0.570E-06  0.200E-05  0.190E-06  0.666E-06  0.363E-06  0.143E-05  0.109E-05  0.430E-05
   5.205  0.155E-06  0.581E-06  0.169E-07  0.543E-07  0.357E-07  0.125E-06  0.119E-07  0.418E-07  0.227E-07  0.900E-07  0.681E-07  0.270E-06
   5.305  0.361E-08  0.128E-07  0.420E-09  0.124E-08  0.824E-09  0.277E-08  0.368E-09  0.103E-08  0.501E-09  0.195E-08  0.150E-08  0.585E-08
   5.405  0.616E-07  0.932E-07  0.122E-07  0.167E-07  0.129E-07  0.194E-07  0.224E-07  0.282E-07  0.401E-08  0.761E-08  0.100E-07  0.213E-07
   5.505  0.420E-05  0.639E-05  0.863E-06  0.117E-05  0.860E-06  0.131E-05  0.148E-05  0.189E-05  0.305E-06  0.552E-06  0.684E-06  0.147E-05
   5.605  0.103E-03  0.157E-03  0.227E-04  0.302E-04  0.199E-04  0.312E-04  0.341E-04  0.437E-04  0.918E-05  0.153E-04  0.168E-04  0.369E-04
   5.705  0.955E-03  0.148E-02  0.240E-03  0.309E-03  0.166E-03  0.275E-03  0.278E-03  0.362E-03  0.116E-03  0.173E-03  0.156E-03  0.358E-03
   5.805  0.363E-02  0.568E-02  0.106E-02  0.132E-02  0.526E-03  0.957E-03  0.843E-03  0.113E-02  0.601E-03  0.822E-03  0.597E-03  0.144E-02
   5.905  0.579E-02  0.919E-02  0.192E-02  0.234E-02  0.687E-03  0.140E-02  0.102E-02  0.144E-02  0.120E-02  0.157E-02  0.960E-03  0.243E-02
   6.005  0.371E-02  0.597E-02  0.131E-02  0.160E-02  0.380E-03  0.853E-03  0.525E-03  0.768E-03  0.870E-03  0.112E-02  0.621E-03  0.163E-02
   6.105  0.104E-02  0.162E-02  0.324E-03  0.396E-03  0.137E-03  0.258E-03  0.160E-03  0.226E-03  0.249E-03  0.311E-03  0.175E-03  0.431E-03
   6.205  0.148E-02  0.172E-02  0.315E-04  0.352E-04  0.476E-03  0.537E-03  0.453E-03  0.551E-03  0.286E-03  0.281E-03  0.237E-03  0.313E-03
   6.305  0.422E-02  0.480E-02  0.189E-04  0.106E-04  0.140E-02  0.156E-02  0.132E-02  0.161E-02  0.802E-03  0.774E-03  0.671E-03  0.838E-03
   6.405  0.465E-02  0.523E-02  0.166E-03  0.158E-03  0.145E-02  0.162E-02  0.136E-02  0.166E-02  0.946E-03  0.899E-03  0.725E-03  0.894E-03
   6.505  0.458E-02  0.457E-02  0.120E-02  0.122E-02  0.756E-03  0.752E-03  0.632E-03  0.764E-03  0.139E-02  0.120E-02  0.608E-03  0.631E-03
   6.605  0.843E-02  0.795E-02  0.317E-02  0.328E-02  0.764E-03  0.606E-03  0.512E-03  0.599E-03  0.296E-02  0.253E-02  0.102E-02  0.939E-03
   6.705  0.741E-02  0.708E-02  0.285E-02  0.298E-02  0.637E-03  0.497E-03  0.413E-03  0.488E-03  0.262E-02  0.228E-02  0.887E-03  0.827E-03
   6.805  0.232E-02  0.235E-02  0.876E-03  0.939E-03  0.208E-03  0.189E-03  0.130E-03  0.162E-03  0.806E-03  0.730E-03  0.297E-03  0.331E-03
   6.905  0.116E-02  0.252E-02  0.196E-03  0.327E-03  0.233E-03  0.518E-03  0.933E-04  0.203E-03  0.229E-03  0.420E-03  0.407E-03  0.105E-02
   7.005  0.652E-02  0.126E-01  0.680E-03  0.120E-02  0.157E-02  0.288E-02  0.787E-03  0.161E-02  0.138E-02  0.184E-02  0.210E-02  0.510E-02
   7.105  0.372E-01  0.461E-01  0.365E-02  0.388E-02  0.937E-02  0.115E-01  0.582E-02  0.117E-01  0.107E-01  0.578E-02  0.769E-02  0.132E-01
   7.205  0.133E+00  0.141E+00  0.139E-01  0.120E-01  0.336E-01  0.367E-01  0.214E-01  0.459E-01  0.413E-01  0.155E-01  0.228E-01  0.307E-01
   7.305  0.209E+00  0.235E+00  0.243E-01  0.220E-01  0.519E-01  0.607E-01  0.361E-01  0.729E-01  0.613E-01  0.273E-01  0.356E-01  0.524E-01
   7.405  0.212E+00  0.271E+00  0.300E-01  0.294E-01  0.491E-01  0.671E-01  0.488E-01  0.678E-01  0.478E-01  0.405E-01  0.366E-01  0.666E-01
   7.505  0.290E+00  0.363E+00  0.485E-01  0.458E-01  0.615E-01  0.862E-01  0.682E-01  0.904E-01  0.653E-01  0.583E-01  0.469E-01  0.826E-01
   7.605  0.375E+00  0.398E+00  0.756E-01  0.539E-01  0.722E-01  0.942E-01  0.768E-01  0.991E-01  0.958E-01  0.660E-01  0.545E-01  0.849E-01
   7.705  0.472E+00  0.421E+00  0.114E+00  0.677E-01  0.823E-01  0.955E-01  0.940E-01  0.857E-01  0.118E+00  0.758E-01  0.647E-01  0.966E-01
   7.805  0.597E+00  0.589E+00  0.133E+00  0.957E-01  0.112E+00  0.128E+00  0.106E+00  0.120E+00  0.155E+00  0.993E-01  0.901E-01  0.146E+00
   7.905  0.542E+00  0.714E+00  0.104E+00  0.117E+00  0.117E+00  0.153E+00  0.879E-01  0.153E+00  0.143E+00  0.122E+00  0.909E-01  0.169E+00
   8.005  0.394E+00  0.711E+00  0.738E-01  0.129E+00  0.862E-01  0.145E+00  0.639E-01  0.125E+00  0.963E-01  0.152E+00  0.741E-01  0.160E+00
   8.105  0.395E+00  0.747E+00  0.860E-01  0.133E+00  0.732E-01  0.153E+00  0.686E-01  0.979E-01  0.911E-01  0.176E+00  0.766E-01  0.188E+00
   8.205  0.488E+00  0.846E+00  0.117E+00  0.154E+00  0.825E-01  0.169E+00  0.872E-01  0.987E-01  0.110E+00  0.185E+00  0.915E-01  0.240E+00
   8.305  0.693E+00  0.111E+01  0.144E+00  0.201E+00  0.135E+00  0.219E+00  0.148E+00  0.173E+00  0.143E+00  0.230E+00  0.123E+00  0.284E+00
   8.405  0.777E+00  0.114E+01  0.128E+00  0.190E+00  0.179E+00  0.242E+00  0.195E+00  0.249E+00  0.146E+00  0.213E+00  0.129E+00  0.241E+00
   8.505  0.510E+00  0.752E+00  0.727E-01  0.130E+00  0.125E+00  0.156E+00  0.128E+00  0.184E+00  0.963E-01  0.127E+00  0.881E-01  0.155E+00
   8.605  0.367E+00  0.595E+00  0.784E-01  0.130E+00  0.687E-01  0.986E-01  0.555E-01  0.116E+00  0.976E-01  0.111E+00  0.669E-01  0.139E+00
   8.705  0.468E+00  0.698E+00  0.122E+00  0.149E+00  0.768E-01  0.120E+00  0.587E-01  0.109E+00  0.136E+00  0.139E+00  0.743E-01  0.181E+00
   8.805  0.499E+00  0.790E+00  0.117E+00  0.183E+00  0.940E-01  0.138E+00  0.986E-01  0.126E+00  0.114E+00  0.135E+00  0.745E-01  0.208E+00
   8.905  0.430E+00  0.784E+00  0.910E-01  0.186E+00  0.855E-01  0.134E+00  0.106E+00  0.136E+00  0.812E-01  0.121E+00  0.663E-01  0.207E+00
   9.005  0.435E+00  0.847E+00  0.964E-01  0.177E+00  0.809E-01  0.145E+00  0.945E-01  0.133E+00  0.890E-01  0.151E+00  0.737E-01  0.241E+00
   9.105  0.564E+00  0.111E+01  0.114E+00  0.230E+00  0.117E+00  0.201E+00  0.122E+00  0.197E+00  0.112E+00  0.206E+00  0.985E-01  0.279E+00
   9.205  0.632E+00  0.112E+01  0.103E+00  0.235E+00  0.153E+00  0.226E+00  0.144E+00  0.247E+00  0.127E+00  0.191E+00  0.105E+00  0.225E+00
   9.305  0.616E+00  0.952E+00  0.924E-01  0.215E+00  0.142E+00  0.184E+00  0.135E+00  0.215E+00  0.146E+00  0.169E+00  0.998E-01  0.169E+00
   9.405  0.625E+00  0.901E+00  0.142E+00  0.230E+00  0.103E+00  0.147E+00  0.113E+00  0.176E+00  0.171E+00  0.186E+00  0.958E-01  0.162E+00
   9.505  0.703E+00  0.910E+00  0.227E+00  0.253E+00  0.824E-01  0.135E+00  0.111E+00  0.159E+00  0.185E+00  0.197E+00  0.976E-01  0.165E+00
   9.605  0.737E+00  0.856E+00  0.273E+00  0.254E+00  0.742E-01  0.125E+00  0.108E+00  0.152E+00  0.176E+00  0.172E+00  0.105E+00  0.153E+00
   9.705  0.666E+00  0.790E+00  0.247E+00  0.225E+00  0.822E-01  0.121E+00  0.994E-01  0.121E+00  0.140E+00  0.168E+00  0.976E-01  0.155E+00
   9.805  0.692E+00  0.908E+00  0.179E+00  0.268E+00  0.134E+00  0.136E+00  0.147E+00  0.115E+00  0.120E+00  0.227E+00  0.111E+00  0.162E+00
   9.905  0.105E+01  0.114E+01  0.189E+00  0.327E+00  0.233E+00  0.183E+00  0.260E+00  0.158E+00  0.179E+00  0.297E+00  0.193E+00  0.172E+00
  10.005  0.138E+01  0.123E+01  0.249E+00  0.279E+00  0.279E+00  0.235E+00  0.299E+00  0.203E+00  0.276E+00  0.315E+00  0.278E+00  0.202E+00
  10.105  0.130E+01  0.108E+01  0.281E+00  0.200E+00  0.218E+00  0.219E+00  0.236E+00  0.189E+00  0.304E+00  0.260E+00  0.265E+00  0.214E+00
  10.205  0.119E+01  0.936E+00  0.318E+00  0.205E+00  0.166E+00  0.163E+00  0.189E+00  0.136E+00  0.303E+00  0.225E+00  0.211E+00  0.206E+00
  10.305  0.105E+01  0.834E+00  0.338E+00  0.222E+00  0.144E+00  0.132E+00  0.144E+00  0.107E+00  0.260E+00  0.208E+00  0.161E+00  0.165E+00
  10.405  0.846E+00  0.731E+00  0.243E+00  0.183E+00  0.149E+00  0.138E+00  0.140E+00  0.122E+00  0.178E+00  0.167E+00  0.136E+00  0.121E+00
  10.505  0.974E+00  0.916E+00  0.188E+00  0.171E+00  0.214E+00  0.200E+00  0.224E+00  0.209E+00  0.163E+00  0.182E+00  0.184E+00  0.154E+00
  10.605  0.121E+01  0.109E+01  0.217E+00  0.177E+00  0.270E+00  0.247E+00  0.269E+00  0.277E+00  0.187E+00  0.193E+00  0.270E+00  0.196E+00
  10.705  0.111E+01  0.100E+01  0.188E+00  0.165E+00  0.228E+00  0.226E+00  0.217E+00  0.282E+00  0.185E+00  0.148E+00  0.289E+00  0.181E+00
  10.805  0.936E+00  0.106E+01  0.148E+00  0.159E+00  0.192E+00  0.253E+00  0.189E+00  0.320E+00  0.180E+00  0.144E+00  0.226E+00  0.183E+00
  10.905  0.106E+01  0.117E+01  0.138E+00  0.130E+00  0.255E+00  0.312E+00  0.244E+00  0.347E+00  0.201E+00  0.171E+00  0.225E+00  0.206E+00
  11.005  0.123E+01  0.111E+01  0.131E+00  0.998E-01  0.307E+00  0.308E+00  0.301E+00  0.298E+00  0.215E+00  0.199E+00  0.271E+00  0.210E+00
  11.105  0.125E+01  0.104E+01  0.125E+00  0.908E-01  0.322E+00  0.277E+00  0.316E+00  0.261E+00  0.220E+00  0.214E+00  0.264E+00  0.194E+00
  11.205  0.125E+01  0.986E+00  0.118E+00  0.781E-01  0.341E+00  0.271E+00  0.334E+00  0.266E+00  0.217E+00  0.190E+00  0.245E+00  0.181E+00
  11.305  0.130E+01  0.764E+00  0.162E+00  0.734E-01  0.322E+00  0.203E+00  0.324E+00  0.201E+00  0.227E+00  0.141E+00  0.268E+00  0.145E+00
  11.405  0.127E+01  0.577E+00  0.196E+00  0.773E-01  0.287E+00  0.130E+00  0.265E+00  0.119E+00  0.243E+00  0.128E+00  0.281E+00  0.123E+00
  11.505  0.103E+01  0.647E+00  0.152E+00  0.751E-01  0.244E+00  0.149E+00  0.219E+00  0.120E+00  0.208E+00  0.154E+00  0.212E+00  0.149E+00
  11.605  0.962E+00  0.880E+00  0.136E+00  0.769E-01  0.231E+00  0.232E+00  0.218E+00  0.203E+00  0.198E+00  0.171E+00  0.180E+00  0.197E+00
  11.705  0.112E+01  0.123E+01  0.166E+00  0.994E-01  0.258E+00  0.335E+00  0.221E+00  0.322E+00  0.261E+00  0.201E+00  0.214E+00  0.272E+00
  11.805  0.107E+01  0.135E+01  0.179E+00  0.141E+00  0.235E+00  0.354E+00  0.181E+00  0.342E+00  0.275E+00  0.222E+00  0.196E+00  0.291E+00
  11.905  0.907E+00  0.120E+01  0.205E+00  0.207E+00  0.176E+00  0.285E+00  0.159E+00  0.272E+00  0.224E+00  0.196E+00  0.143E+00  0.242E+00
  12.005  0.931E+00  0.125E+01  0.259E+00  0.325E+00  0.165E+00  0.237E+00  0.186E+00  0.256E+00  0.194E+00  0.202E+00  0.128E+00  0.235E+00
  12.105  0.790E+00  0.120E+01  0.207E+00  0.373E+00  0.153E+00  0.168E+00  0.162E+00  0.228E+00  0.164E+00  0.239E+00  0.104E+00  0.195E+00
  12.205  0.589E+00  0.882E+00  0.133E+00  0.292E+00  0.121E+00  0.105E+00  0.112E+00  0.143E+00  0.141E+00  0.220E+00  0.810E-01  0.121E+00
  12.305  0.643E+00  0.662E+00  0.146E+00  0.229E+00  0.120E+00  0.749E-01  0.156E+00  0.907E-01  0.132E+00  0.179E+00  0.885E-01  0.887E-01
  12.405  0.988E+00  0.512E+00  0.260E+00  0.175E+00  0.167E+00  0.538E-01  0.268E+00  0.750E-01  0.140E+00  0.138E+00  0.152E+00  0.704E-01
  12.505  0.133E+01  0.422E+00  0.375E+00  0.145E+00  0.216E+00  0.449E-01  0.279E+00  0.589E-01  0.162E+00  0.114E+00  0.295E+00  0.598E-01
  12.605  0.120E+01  0.382E+00  0.283E+00  0.143E+00  0.207E+00  0.412E-01  0.190E+00  0.450E-01  0.152E+00  0.101E+00  0.363E+00  0.518E-01
  12.705  0.777E+00  0.276E+00  0.123E+00  0.107E+00  0.146E+00  0.267E-01  0.964E-01  0.264E-01  0.111E+00  0.803E-01  0.300E+00  0.362E-01
  12.805  0.585E+00  0.213E+00  0.650E-01  0.791E-01  0.119E+00  0.199E-01  0.601E-01  0.176E-01  0.895E-01  0.679E-01  0.251E+00  0.288E-01
  12.905  0.478E+00  0.184E+00  0.602E-01  0.528E-01  0.102E+00  0.262E-01  0.697E-01  0.248E-01  0.676E-01  0.522E-01  0.179E+00  0.282E-01
  13.005  0.502E+00  0.211E+00  0.872E-01  0.385E-01  0.104E+00  0.461E-01  0.108E+00  0.446E-01  0.655E-01  0.463E-01  0.136E+00  0.358E-01
  13.105  0.578E+00  0.280E+00  0.117E+00  0.519E-01  0.107E+00  0.610E-01  0.122E+00  0.595E-01  0.833E-01  0.599E-01  0.149E+00  0.481E-01
  13.205  0.521E+00  0.285E+00  0.111E+00  0.583E-01  0.891E-01  0.581E-01  0.101E+00  0.597E-01  0.798E-01  0.580E-01  0.140E+00  0.511E-01
  13.305  0.294E+00  0.172E+00  0.591E-01  0.343E-01  0.492E-01  0.351E-01  0.517E-01  0.367E-01  0.449E-01  0.309E-01  0.888E-01  0.350E-01
  13.405  0.119E+00  0.727E-01  0.195E-01  0.121E-01  0.215E-01  0.159E-01  0.194E-01  0.169E-01  0.166E-01  0.965E-02  0.416E-01  0.182E-01
  13.505  0.661E-01  0.431E-01  0.910E-02  0.634E-02  0.135E-01  0.100E-01  0.113E-01  0.109E-01  0.820E-02  0.417E-02  0.240E-01  0.117E-01
  13.605  0.243E-01  0.167E-01  0.331E-02  0.253E-02  0.514E-02  0.398E-02  0.423E-02  0.423E-02  0.294E-02  0.151E-02  0.872E-02  0.446E-02
  13.705  0.577E-02  0.385E-02  0.572E-03  0.508E-03  0.139E-02  0.961E-03  0.116E-02  0.980E-03  0.916E-03  0.533E-03  0.173E-02  0.867E-03
  13.805  0.172E-01  0.118E-01  0.128E-02  0.154E-02  0.448E-02  0.280E-02  0.333E-02  0.228E-02  0.382E-02  0.314E-02  0.432E-02  0.205E-02
  13.905  0.474E-01  0.370E-01  0.473E-02  0.606E-02  0.116E-01  0.819E-02  0.710E-02  0.514E-02  0.110E-01  0.112E-01  0.129E-01  0.644E-02
  14.005  0.522E-01  0.450E-01  0.614E-02  0.832E-02  0.125E-01  0.972E-02  0.626E-02  0.483E-02  0.123E-01  0.144E-01  0.149E-01  0.773E-02
  14.105  0.238E-01  0.217E-01  0.318E-02  0.432E-02  0.564E-02  0.464E-02  0.241E-02  0.196E-02  0.582E-02  0.710E-02  0.680E-02  0.369E-02
  14.205  0.218E-01  0.190E-01  0.426E-02  0.420E-02  0.391E-02  0.341E-02  0.144E-02  0.124E-02  0.682E-02  0.667E-02  0.534E-02  0.346E-02
  14.305  0.507E-01  0.455E-01  0.104E-01  0.103E-01  0.940E-02  0.827E-02  0.337E-02  0.293E-02  0.159E-01  0.158E-01  0.117E-01  0.823E-02
  14.405  0.470E-01  0.440E-01  0.959E-02  0.100E-01  0.966E-02  0.846E-02  0.342E-02  0.299E-02  0.140E-01  0.148E-01  0.103E-01  0.772E-02
  14.505  0.150E-01  0.146E-01  0.304E-02  0.334E-02  0.339E-02  0.296E-02  0.119E-02  0.104E-02  0.421E-02  0.474E-02  0.314E-02  0.247E-02
  14.605  0.371E-02  0.339E-02  0.868E-03  0.818E-03  0.702E-03  0.621E-03  0.340E-03  0.287E-03  0.105E-02  0.110E-02  0.752E-03  0.566E-03
  14.705  0.204E-01  0.180E-01  0.524E-02  0.452E-02  0.313E-02  0.287E-02  0.205E-02  0.173E-02  0.591E-02  0.587E-02  0.411E-02  0.297E-02
  14.805  0.674E-01  0.616E-01  0.171E-01  0.156E-01  0.110E-01  0.102E-01  0.713E-02  0.613E-02  0.189E-01  0.196E-01  0.133E-01  0.997E-02
  14.905  0.758E-01  0.720E-01  0.191E-01  0.183E-01  0.132E-01  0.124E-01  0.846E-02  0.742E-02  0.205E-01  0.224E-01  0.146E-01  0.114E-01
  15.005  0.291E-01  0.286E-01  0.727E-02  0.733E-02  0.539E-02  0.514E-02  0.342E-02  0.305E-02  0.755E-02  0.866E-02  0.545E-02  0.443E-02
  15.105  0.380E-02  0.387E-02  0.941E-03  0.998E-03  0.749E-03  0.722E-03  0.470E-03  0.425E-03  0.947E-03  0.114E-02  0.693E-03  0.584E-03
  15.205  0.242E-03  0.238E-03  0.531E-04  0.561E-04  0.512E-04  0.472E-04  0.279E-04  0.250E-04  0.626E-04  0.717E-04  0.471E-04  0.378E-04
  15.305  0.160E-02  0.136E-02  0.265E-03  0.236E-03  0.345E-03  0.286E-03  0.129E-03  0.109E-03  0.485E-03  0.464E-03  0.380E-03  0.265E-03
  15.405  0.120E-01  0.104E-01  0.206E-02  0.190E-02  0.254E-02  0.217E-02  0.950E-03  0.826E-03  0.358E-02  0.349E-02  0.285E-02  0.203E-02
  15.505  0.304E-01  0.271E-01  0.542E-02  0.518E-02  0.636E-02  0.561E-02  0.238E-02  0.213E-02  0.896E-02  0.892E-02  0.726E-02  0.531E-02
  15.605  0.262E-01  0.241E-01  0.485E-02  0.481E-02  0.541E-02  0.492E-02  0.202E-02  0.186E-02  0.763E-02  0.775E-02  0.629E-02  0.472E-02
  15.705  0.768E-02  0.725E-02  0.148E-02  0.152E-02  0.156E-02  0.147E-02  0.583E-03  0.554E-03  0.220E-02  0.228E-02  0.185E-02  0.142E-02
  15.805  0.790E-03  0.762E-03  0.157E-03  0.166E-03  0.159E-03  0.153E-03  0.591E-04  0.575E-04  0.222E-03  0.234E-03  0.194E-03  0.151E-03
  15.905  0.685E-03  0.532E-03  0.116E-03  0.103E-03  0.138E-03  0.105E-03  0.575E-04  0.440E-04  0.157E-03  0.147E-03  0.216E-03  0.133E-03
  16.005  0.605E-02  0.472E-02  0.109E-02  0.963E-03  0.120E-02  0.907E-03  0.689E-03  0.537E-03  0.126E-02  0.118E-02  0.181E-02  0.114E-02
  16.105  0.229E-01  0.183E-01  0.448E-02  0.403E-02  0.442E-02  0.343E-02  0.405E-02  0.329E-02  0.395E-02  0.367E-02  0.597E-02  0.388E-02
  16.205  0.459E-01  0.379E-01  0.959E-02  0.870E-02  0.867E-02  0.701E-02  0.112E-01  0.938E-02  0.669E-02  0.614E-02  0.972E-02  0.672E-02
  16.305  0.780E-01  0.649E-01  0.158E-01  0.140E-01  0.150E-01  0.124E-01  0.180E-01  0.150E-01  0.136E-01  0.124E-01  0.157E-01  0.111E-01
  16.405  0.117E+00  0.955E-01  0.221E-01  0.191E-01  0.238E-01  0.195E-01  0.249E-01  0.203E-01  0.213E-01  0.195E-01  0.249E-01  0.171E-01
  16.505  0.867E-01  0.703E-01  0.159E-01  0.136E-01  0.184E-01  0.150E-01  0.198E-01  0.163E-01  0.139E-01  0.126E-01  0.188E-01  0.127E-01
  16.605  0.244E-01  0.198E-01  0.439E-02  0.373E-02  0.530E-02  0.439E-02  0.608E-02  0.517E-02  0.337E-02  0.301E-02  0.527E-02  0.355E-02
  16.705  0.557E-02  0.428E-02  0.108E-02  0.751E-03  0.112E-02  0.947E-03  0.154E-02  0.125E-02  0.589E-03  0.453E-03  0.124E-02  0.883E-03
  16.805  0.230E-01  0.172E-01  0.470E-02  0.290E-02  0.433E-02  0.378E-02  0.652E-02  0.516E-02  0.215E-02  0.145E-02  0.528E-02  0.395E-02
  16.905  0.564E-01  0.436E-01  0.115E-01  0.735E-02  0.106E-01  0.966E-02  0.160E-01  0.131E-01  0.530E-02  0.362E-02  0.130E-01  0.984E-02
  17.005  0.472E-01  0.375E-01  0.958E-02  0.637E-02  0.893E-02  0.843E-02  0.134E-01  0.113E-01  0.445E-02  0.308E-02  0.109E-01  0.835E-02
  17.105  0.141E-01  0.116E-01  0.287E-02  0.202E-02  0.266E-02  0.259E-02  0.388E-02  0.339E-02  0.145E-02  0.105E-02  0.326E-02  0.252E-02
  17.205  0.120E-01  0.970E-02  0.264E-02  0.232E-02  0.209E-02  0.166E-02  0.184E-02  0.152E-02  0.263E-02  0.231E-02  0.282E-02  0.190E-02
  17.305  0.548E-01  0.443E-01  0.121E-01  0.110E-01  0.981E-02  0.737E-02  0.847E-02  0.700E-02  0.117E-01  0.105E-01  0.128E-01  0.841E-02
  17.405  0.978E-01  0.796E-01  0.214E-01  0.199E-01  0.181E-01  0.135E-01  0.168E-01  0.143E-01  0.189E-01  0.172E-01  0.226E-01  0.148E-01
  17.505  0.611E-01  0.501E-01  0.133E-01  0.126E-01  0.117E-01  0.864E-02  0.115E-01  0.101E-01  0.106E-01  0.974E-02  0.140E-01  0.905E-02
  17.605  0.133E-01  0.111E-01  0.289E-02  0.278E-02  0.262E-02  0.194E-02  0.271E-02  0.248E-02  0.210E-02  0.193E-02  0.301E-02  0.193E-02
  17.705  0.103E-02  0.868E-03  0.226E-03  0.220E-03  0.207E-03  0.154E-03  0.223E-03  0.212E-03  0.148E-03  0.136E-03  0.229E-03  0.146E-03
  17.805  0.649E-03  0.545E-03  0.221E-03  0.195E-03  0.759E-04  0.591E-04  0.135E-03  0.115E-03  0.110E-03  0.957E-04  0.106E-03  0.812E-04
  17.905  0.697E-02  0.600E-02  0.241E-02  0.216E-02  0.796E-03  0.640E-03  0.146E-02  0.127E-02  0.120E-02  0.106E-02  0.111E-02  0.876E-03
  18.005  0.265E-01  0.234E-01  0.912E-02  0.835E-02  0.305E-02  0.253E-02  0.562E-02  0.502E-02  0.454E-02  0.416E-02  0.417E-02  0.336E-02
  18.105  0.342E-01  0.310E-01  0.117E-01  0.110E-01  0.397E-02  0.340E-02  0.733E-02  0.675E-02  0.585E-02  0.551E-02  0.531E-02  0.438E-02
  18.205  0.150E-01  0.140E-01  0.514E-02  0.492E-02  0.176E-02  0.155E-02  0.325E-02  0.308E-02  0.256E-02  0.249E-02  0.230E-02  0.194E-02
  18.305  0.289E-02  0.265E-02  0.966E-03  0.914E-03  0.340E-03  0.296E-03  0.564E-03  0.535E-03  0.521E-03  0.501E-03  0.495E-03  0.400E-03
  18.405  0.703E-02  0.564E-02  0.222E-02  0.190E-02  0.821E-03  0.611E-03  0.824E-03  0.638E-03  0.150E-02  0.131E-02  0.167E-02  0.118E-02
  18.505  0.249E-01  0.203E-01  0.793E-02  0.693E-02  0.290E-02  0.217E-02  0.285E-02  0.223E-02  0.526E-02  0.471E-02  0.593E-02  0.423E-02
  18.605  0.304E-01  0.253E-01  0.980E-02  0.879E-02  0.354E-02  0.268E-02  0.345E-02  0.275E-02  0.637E-02  0.582E-02  0.723E-02  0.524E-02
  18.705  0.134E-01  0.112E-01  0.417E-02  0.383E-02  0.163E-02  0.124E-02  0.153E-02  0.124E-02  0.275E-02  0.254E-02  0.329E-02  0.239E-02
  18.805  0.792E-02  0.598E-02  0.103E-02  0.866E-03  0.162E-02  0.122E-02  0.114E-02  0.909E-03  0.141E-02  0.113E-02  0.272E-02  0.185E-02
  18.905  0.165E-01  0.121E-01  0.121E-02  0.854E-03  0.410E-02  0.313E-02  0.256E-02  0.206E-02  0.269E-02  0.204E-02  0.592E-02  0.399E-02
  19.005  0.149E-01  0.111E-01  0.107E-02  0.748E-03  0.403E-02  0.312E-02  0.237E-02  0.192E-02  0.232E-02  0.178E-02  0.514E-02  0.351E-02
  19.105  0.464E-02  0.349E-02  0.329E-03  0.230E-03  0.135E-02  0.106E-02  0.751E-03  0.616E-03  0.685E-03  0.533E-03  0.152E-02  0.105E-02
  19.205  0.493E-03  0.375E-03  0.347E-04  0.242E-04  0.154E-03  0.123E-03  0.814E-04  0.674E-04  0.689E-04  0.541E-04  0.154E-03  0.107E-03
  19.305  0.352E-04  0.255E-04  0.314E-05  0.220E-05  0.983E-05  0.746E-05  0.429E-05  0.339E-05  0.494E-05  0.358E-05  0.130E-04  0.885E-05
  19.405  0.298E-03  0.201E-03  0.324E-04  0.229E-04  0.655E-04  0.452E-04  0.219E-04  0.151E-04  0.444E-04  0.295E-04  0.133E-03  0.885E-04
  19.505  0.174E-02  0.118E-02  0.191E-03  0.136E-03  0.381E-03  0.263E-03  0.128E-03  0.884E-04  0.260E-03  0.174E-03  0.775E-03  0.517E-03
  19.605  0.368E-02  0.254E-02  0.484E-03  0.355E-03  0.772E-03  0.537E-03  0.281E-03  0.200E-03  0.578E-03  0.399E-03  0.157E-02  0.105E-02
  19.705  0.539E-02  0.417E-02  0.151E-02  0.123E-02  0.744E-03  0.543E-03  0.510E-03  0.420E-03  0.111E-02  0.911E-03  0.151E-02  0.106E-02
  19.805  0.124E-01  0.107E-01  0.487E-02  0.424E-02  0.105E-02  0.855E-03  0.134E-02  0.122E-02  0.307E-02  0.278E-02  0.210E-02  0.165E-02
  19.905  0.171E-01  0.156E-01  0.669E-02  0.610E-02  0.148E-02  0.129E-02  0.177E-02  0.167E-02  0.453E-02  0.427E-02  0.266E-02  0.222E-02
  20.005  0.149E-01  0.144E-01  0.512E-02  0.490E-02  0.175E-02  0.169E-02  0.114E-02  0.112E-02  0.479E-02  0.473E-02  0.213E-02  0.197E-02
