# E (eV)  dosup(E)   dosdw(E)  pdosup(E)  pdosdw(E)
   2.000  0.000E+00  0.000E+00  0.000E+00  0.000E+00
   2.100  0.000E+00  0.000E+00  0.000E+00  0.000E+00
   2.200  0.000E+00  0.000E+00  0.000E+00  0.000E+00
   2.300  0.000E+00  0.000E+00  0.000E+00  0.000E+00
   2.400  0.000E+00  0.000E+00  0.000E+00  0.000E+00
   2.500  0.000E+00  0.000E+00  0.000E+00  0.000E+00
   2.600  0.000E+00  0.000E+00  0.000E+00  0.000E+00
   2.700  0.000E+00  0.000E+00  0.000E+00  0.000E+00
   2.800  0.000E+00  0.000E+00  0.000E+00  0.000E+00
   2.900  0.000E+00  0.000E+00  0.000E+00  0.000E+00
   3.000  0.000E+00  0.000E+00  0.000E+00  0.000E+00
   3.100  0.000E+00  0.000E+00  0.000E+00  0.000E+00
   3.200  0.000E+00  0.000E+00  0.000E+00  0.000E+00
   3.300  0.000E+00  0.000E+00  0.000E+00  0.000E+00
   3.400  0.000E+00  0.000E+00  0.000E+00  0.000E+00
   3.500  0.000E+00  0.000E+00  0.000E+00  0.000E+00
   3.600  0.000E+00  0.000E+00  0.000E+00  0.000E+00
   3.700  0.000E+00  0.000E+00  0.000E+00  0.000E+00
   3.800  0.000E+00  0.000E+00  0.000E+00  0.000E+00
   3.900  0.000E+00  0.000E+00  0.000E+00  0.000E+00
   4.000  0.000E+00  0.000E+00  0.000E+00  0.000E+00
   4.100  0.000E+00  0.000E+00  0.000E+00  0.000E+00
   4.200  0.000E+00  0.000E+00  0.000E+00  0.000E+00
   4.300  0.000E+00  0.000E+00  0.000E+00  0.000E+00
   4.400  0.000E+00  0.000E+00  0.000E+00  0.000E+00
   4.500  0.000E+00  0.000E+00  0.000E+00  0.000E+00
   4.600  0.000E+00  0.000E+00  0.000E+00  0.000E+00
   4.700  0.000E+00  0.000E+00  0.000E+00  0.000E+00
   4.800  0.000E+00  0.000E+00  0.000E+00  0.000E+00
   4.900  0.000E+00  0.000E+00  0.000E+00  0.000E+00
   5.000  0.000E+00  0.000E+00  0.000E+00  0.000E+00
   5.100  0.000E+00  0.000E+00  0.000E+00  0.000E+00
   5.200  0.000E+00  0.000E+00  0.000E+00  0.000E+00
   5.300  0.000E+00  0.000E+00  0.000E+00  0.000E+00
   5.400  0.000E+00  0.000E+00  0.000E+00  0.000E+00
   5.500  0.000E+00  0.000E+00  0.000E+00  0.000E+00
   5.600  0.000E+00  0.000E+00  0.000E+00  0.000E+00
   5.700  0.000E+00  0.000E+00  0.000E+00  0.000E+00
   5.800  0.000E+00  0.000E+00  0.000E+00  0.000E+00
   5.900  0.000E+00  0.000E+00  0.000E+00  0.000E+00
   6.000  0.000E+00  0.000E+00  0.000E+00  0.000E+00
   6.100  0.000E+00  0.000E+00  0.000E+00  0.000E+00
   6.200  0.000E+00  0.000E+00  0.000E+00  0.000E+00
   6.300  0.000E+00  0.000E+00  0.000E+00  0.000E+00
   6.400  0.000E+00  0.000E+00  0.000E+00  0.000E+00
   6.500  0.000E+00  0.000E+00  0.000E+00  0.000E+00
   6.600  0.000E+00  0.000E+00  0.000E+00  0.000E+00
   6.700  0.000E+00  0.000E+00  0.000E+00  0.000E+00
   6.800  0.000E+00  0.000E+00  0.000E+00  0.000E+00
   6.900  0.000E+00  0.000E+00  0.000E+00  0.000E+00
   7.000  0.000E+00  0.000E+00  0.000E+00  0.000E+00
   7.100  0.000E+00  0.000E+00  0.000E+00  0.000E+00
   7.200  0.000E+00  0.000E+00  0.000E+00  0.000E+00
   7.300  0.000E+00  0.000E+00  0.000E+00  0.000E+00
   7.400  0.000E+00  0.000E+00  0.000E+00  0.000E+00
   7.500  0.000E+00  0.000E+00  0.000E+00  0.000E+00
   7.600  0.000E+00  0.000E+00  0.000E+00  0.000E+00
   7.700  0.000E+00  0.000E+00  0.000E+00  0.000E+00
   7.800  0.000E+00  0.000E+00  0.000E+00  0.000E+00
   7.900  0.000E+00  0.000E+00  0.000E+00  0.000E+00
   8.000  0.437E-12  0.436E-12  0.437E-12  0.435E-12
   8.100  0.399E-09  0.398E-09  0.399E-09  0.398E-09
   8.200  0.124E-06  0.124E-06  0.124E-06  0.124E-06
   8.300  0.130E-04  0.130E-04  0.130E-04  0.130E-04
   8.400  0.466E-03  0.465E-03  0.466E-03  0.465E-03
   8.500  0.565E-02  0.565E-02  0.565E-02  0.565E-02
   8.600  0.233E-01  0.233E-01  0.233E-01  0.233E-01
   8.700  0.326E-01  0.326E-01  0.326E-01  0.326E-01
   8.800  0.166E-01  0.166E-01  0.166E-01  0.166E-01
   8.900  0.153E-01  0.153E-01  0.153E-01  0.153E-01
   9.000  0.492E-01  0.492E-01  0.492E-01  0.492E-01
   9.100  0.641E-01  0.641E-01  0.641E-01  0.641E-01
   9.200  0.284E-01  0.284E-01  0.284E-01  0.284E-01
   9.300  0.427E-02  0.427E-02  0.427E-02  0.427E-02
   9.400  0.218E-03  0.218E-03  0.218E-03  0.218E-03
   9.500  0.378E-05  0.379E-05  0.378E-05  0.379E-05
   9.600  0.194E-05  0.193E-05  0.194E-05  0.193E-05
   9.700  0.166E-03  0.166E-03  0.166E-03  0.166E-03
   9.800  0.497E-02  0.497E-02  0.497E-02  0.497E-02
   9.900  0.529E-01  0.529E-01  0.529E-01  0.529E-01
  10.000  0.216E+00  0.216E+00  0.216E+00  0.216E+00
  10.100  0.387E+00  0.387E+00  0.387E+00  0.387E+00
  10.200  0.325E+00  0.325E+00  0.325E+00  0.325E+00
  10.300  0.117E+00  0.117E+00  0.117E+00  0.117E+00
  10.400  0.284E-01  0.284E-01  0.284E-01  0.284E-01
  10.500  0.851E-01  0.850E-01  0.850E-01  0.850E-01
  10.600  0.192E+00  0.192E+00  0.192E+00  0.192E+00
  10.700  0.154E+00  0.155E+00  0.154E+00  0.154E+00
  10.800  0.952E-01  0.953E-01  0.951E-01  0.952E-01
  10.900  0.175E+00  0.175E+00  0.175E+00  0.175E+00
  11.000  0.177E+00  0.177E+00  0.177E+00  0.176E+00
  11.100  0.618E-01  0.618E-01  0.618E-01  0.617E-01
  11.200  0.789E-02  0.788E-02  0.788E-02  0.787E-02
  11.300  0.852E-02  0.853E-02  0.850E-02  0.851E-02
  11.400  0.466E-01  0.467E-01  0.465E-01  0.466E-01
  11.500  0.128E+00  0.128E+00  0.127E+00  0.127E+00
  11.600  0.215E+00  0.215E+00  0.215E+00  0.215E+00
  11.700  0.195E+00  0.195E+00  0.194E+00  0.195E+00
  11.800  0.164E+00  0.166E+00  0.163E+00  0.166E+00
  11.900  0.341E+00  0.345E+00  0.339E+00  0.343E+00
  12.000  0.768E+00  0.772E+00  0.763E+00  0.767E+00
  12.100  0.137E+01  0.137E+01  0.136E+01  0.136E+01
  12.200  0.166E+01  0.166E+01  0.165E+01  0.165E+01
  12.300  0.161E+01  0.161E+01  0.160E+01  0.160E+01
  12.400  0.148E+01  0.148E+01  0.147E+01  0.147E+01
  12.500  0.132E+01  0.132E+01  0.131E+01  0.131E+01
  12.600  0.985E+00  0.983E+00  0.978E+00  0.977E+00
  12.700  0.973E+00  0.977E+00  0.968E+00  0.972E+00
  12.800  0.125E+01  0.125E+01  0.124E+01  0.125E+01
  12.900  0.150E+01  0.150E+01  0.149E+01  0.149E+01
  13.000  0.189E+01  0.189E+01  0.188E+01  0.188E+01
  13.100  0.217E+01  0.217E+01  0.216E+01  0.216E+01
  13.200  0.182E+01  0.182E+01  0.181E+01  0.181E+01
  13.300  0.117E+01  0.116E+01  0.116E+01  0.115E+01
  13.400  0.942E+00  0.942E+00  0.936E+00  0.936E+00
  13.500  0.128E+01  0.129E+01  0.127E+01  0.128E+01
  13.600  0.181E+01  0.181E+01  0.180E+01  0.180E+01
  13.700  0.263E+01  0.264E+01  0.262E+01  0.263E+01
  13.800  0.330E+01  0.330E+01  0.328E+01  0.329E+01
  13.900  0.265E+01  0.263E+01  0.263E+01  0.262E+01
  14.000  0.152E+01  0.151E+01  0.151E+01  0.150E+01
  14.100  0.121E+01  0.121E+01  0.120E+01  0.120E+01
  14.200  0.177E+01  0.178E+01  0.176E+01  0.177E+01
  14.300  0.268E+01  0.270E+01  0.267E+01  0.269E+01
  14.400  0.310E+01  0.310E+01  0.309E+01  0.309E+01
  14.500  0.257E+01  0.255E+01  0.256E+01  0.254E+01
  14.600  0.171E+01  0.170E+01  0.171E+01  0.169E+01
  14.700  0.128E+01  0.127E+01  0.127E+01  0.126E+01
  14.800  0.164E+01  0.164E+01  0.163E+01  0.164E+01
  14.900  0.259E+01  0.260E+01  0.259E+01  0.259E+01
  15.000  0.302E+01  0.300E+01  0.301E+01  0.299E+01
  15.100  0.264E+01  0.263E+01  0.263E+01  0.262E+01
  15.200  0.204E+01  0.204E+01  0.203E+01  0.203E+01
  15.300  0.133E+01  0.133E+01  0.132E+01  0.132E+01
  15.400  0.142E+01  0.142E+01  0.141E+01  0.142E+01
  15.500  0.215E+01  0.217E+01  0.215E+01  0.217E+01
  15.600  0.203E+01  0.203E+01  0.203E+01  0.203E+01
  15.700  0.145E+01  0.143E+01  0.144E+01  0.143E+01
  15.800  0.184E+01  0.182E+01  0.184E+01  0.182E+01
  15.900  0.272E+01  0.270E+01  0.271E+01  0.270E+01
  16.000  0.261E+01  0.262E+01  0.260E+01  0.261E+01
  16.100  0.174E+01  0.175E+01  0.173E+01  0.175E+01
  16.200  0.160E+01  0.159E+01  0.159E+01  0.159E+01
  16.300  0.220E+01  0.218E+01  0.220E+01  0.218E+01
  16.400  0.285E+01  0.283E+01  0.284E+01  0.283E+01
  16.500  0.259E+01  0.260E+01  0.258E+01  0.260E+01
  16.600  0.181E+01  0.183E+01  0.181E+01  0.183E+01
  16.700  0.148E+01  0.149E+01  0.148E+01  0.149E+01
  16.800  0.920E+00  0.927E+00  0.919E+00  0.926E+00
  16.900  0.517E+00  0.517E+00  0.516E+00  0.516E+00
  17.000  0.663E+00  0.660E+00  0.661E+00  0.659E+00
  17.100  0.619E+00  0.622E+00  0.618E+00  0.621E+00
  17.200  0.304E+00  0.307E+00  0.303E+00  0.307E+00
  17.300  0.270E+00  0.270E+00  0.270E+00  0.269E+00
  17.400  0.560E+00  0.557E+00  0.559E+00  0.556E+00
  17.500  0.876E+00  0.873E+00  0.874E+00  0.872E+00
  17.600  0.784E+00  0.785E+00  0.782E+00  0.784E+00
  17.700  0.370E+00  0.374E+00  0.369E+00  0.373E+00
  17.800  0.862E-01  0.880E-01  0.860E-01  0.878E-01
  17.900  0.634E-01  0.635E-01  0.633E-01  0.634E-01
  18.000  0.172E+00  0.172E+00  0.172E+00  0.171E+00
  18.100  0.176E+00  0.176E+00  0.176E+00  0.176E+00
  18.200  0.615E-01  0.617E-01  0.614E-01  0.616E-01
  18.300  0.728E-02  0.732E-02  0.727E-02  0.731E-02
  18.400  0.292E-03  0.295E-03  0.292E-03  0.294E-03
  18.500  0.399E-05  0.403E-05  0.399E-05  0.402E-05
