# E (eV)  ldosup(E)  ldosdw(E) pdosup(E)  pdosdw(E) 
   2.000  0.000E+00  0.000E+00  0.000E+00  0.000E+00
   2.100  0.000E+00  0.000E+00  0.000E+00  0.000E+00
   2.200  0.000E+00  0.000E+00  0.000E+00  0.000E+00
   2.300  0.000E+00  0.000E+00  0.000E+00  0.000E+00
   2.400  0.000E+00  0.000E+00  0.000E+00  0.000E+00
   2.500  0.000E+00  0.000E+00  0.000E+00  0.000E+00
   2.600  0.000E+00  0.000E+00  0.000E+00  0.000E+00
   2.700  0.000E+00  0.000E+00  0.000E+00  0.000E+00
   2.800  0.000E+00  0.000E+00  0.000E+00  0.000E+00
   2.900  0.000E+00  0.000E+00  0.000E+00  0.000E+00
   3.000  0.000E+00  0.000E+00  0.000E+00  0.000E+00
   3.100  0.000E+00  0.000E+00  0.000E+00  0.000E+00
   3.200  0.000E+00  0.000E+00  0.000E+00  0.000E+00
   3.300  0.000E+00  0.000E+00  0.000E+00  0.000E+00
   3.400  0.000E+00  0.000E+00  0.000E+00  0.000E+00
   3.500  0.000E+00  0.000E+00  0.000E+00  0.000E+00
   3.600  0.000E+00  0.000E+00  0.000E+00  0.000E+00
   3.700  0.000E+00  0.000E+00  0.000E+00  0.000E+00
   3.800  0.000E+00  0.000E+00  0.000E+00  0.000E+00
   3.900  0.000E+00  0.000E+00  0.000E+00  0.000E+00
   4.000  0.000E+00  0.000E+00  0.000E+00  0.000E+00
   4.100  0.000E+00  0.000E+00  0.000E+00  0.000E+00
   4.200  0.000E+00  0.000E+00  0.000E+00  0.000E+00
   4.300  0.000E+00  0.000E+00  0.000E+00  0.000E+00
   4.400  0.000E+00  0.000E+00  0.000E+00  0.000E+00
   4.500  0.000E+00  0.000E+00  0.000E+00  0.000E+00
   4.600  0.000E+00  0.000E+00  0.000E+00  0.000E+00
   4.700  0.000E+00  0.000E+00  0.000E+00  0.000E+00
   4.800  0.000E+00  0.000E+00  0.000E+00  0.000E+00
   4.900  0.000E+00  0.000E+00  0.000E+00  0.000E+00
   5.000  0.000E+00  0.000E+00  0.000E+00  0.000E+00
   5.100  0.000E+00  0.000E+00  0.000E+00  0.000E+00
   5.200  0.000E+00  0.000E+00  0.000E+00  0.000E+00
   5.300  0.000E+00  0.000E+00  0.000E+00  0.000E+00
   5.400  0.000E+00  0.000E+00  0.000E+00  0.000E+00
   5.500  0.000E+00  0.000E+00  0.000E+00  0.000E+00
   5.600  0.000E+00  0.000E+00  0.000E+00  0.000E+00
   5.700  0.000E+00  0.000E+00  0.000E+00  0.000E+00
   5.800  0.000E+00  0.000E+00  0.000E+00  0.000E+00
   5.900  0.000E+00  0.000E+00  0.000E+00  0.000E+00
   6.000  0.000E+00  0.000E+00  0.000E+00  0.000E+00
   6.100  0.000E+00  0.000E+00  0.000E+00  0.000E+00
   6.200  0.000E+00  0.000E+00  0.000E+00  0.000E+00
   6.300  0.000E+00  0.000E+00  0.000E+00  0.000E+00
   6.400  0.000E+00  0.000E+00  0.000E+00  0.000E+00
   6.500  0.000E+00  0.000E+00  0.000E+00  0.000E+00
   6.600  0.000E+00  0.000E+00  0.000E+00  0.000E+00
   6.700  0.000E+00  0.000E+00  0.000E+00  0.000E+00
   6.800  0.000E+00  0.000E+00  0.000E+00  0.000E+00
   6.900  0.000E+00  0.000E+00  0.000E+00  0.000E+00
   7.000  0.000E+00  0.000E+00  0.000E+00  0.000E+00
   7.100  0.000E+00  0.000E+00  0.000E+00  0.000E+00
   7.200  0.000E+00  0.000E+00  0.000E+00  0.000E+00
   7.300  0.000E+00  0.000E+00  0.000E+00  0.000E+00
   7.400  0.000E+00  0.000E+00  0.000E+00  0.000E+00
   7.500  0.000E+00  0.000E+00  0.000E+00  0.000E+00
   7.600  0.000E+00  0.000E+00  0.000E+00  0.000E+00
   7.700  0.000E+00  0.000E+00  0.000E+00  0.000E+00
   7.800  0.000E+00  0.000E+00  0.000E+00  0.000E+00
   7.900  0.000E+00  0.000E+00  0.000E+00  0.000E+00
   8.000  0.559E-14  0.542E-14  0.559E-14  0.542E-14
   8.100  0.511E-11  0.495E-11  0.511E-11  0.495E-11
   8.200  0.158E-08  0.154E-08  0.158E-08  0.154E-08
   8.300  0.167E-06  0.162E-06  0.167E-06  0.162E-06
   8.400  0.596E-05  0.579E-05  0.596E-05  0.579E-05
   8.500  0.723E-04  0.703E-04  0.723E-04  0.703E-04
   8.600  0.298E-03  0.290E-03  0.298E-03  0.290E-03
   8.700  0.417E-03  0.405E-03  0.417E-03  0.405E-03
   8.800  0.214E-03  0.208E-03  0.214E-03  0.208E-03
   8.900  0.219E-03  0.214E-03  0.219E-03  0.214E-03
   9.000  0.723E-03  0.706E-03  0.723E-03  0.706E-03
   9.100  0.941E-03  0.920E-03  0.941E-03  0.920E-03
   9.200  0.417E-03  0.408E-03  0.417E-03  0.408E-03
   9.300  0.627E-04  0.613E-04  0.627E-04  0.613E-04
   9.400  0.320E-05  0.313E-05  0.320E-05  0.313E-05
   9.500  0.555E-07  0.544E-07  0.555E-07  0.544E-07
   9.600  0.308E-07  0.299E-07  0.308E-07  0.299E-07
   9.700  0.265E-05  0.256E-05  0.265E-05  0.256E-05
   9.800  0.790E-04  0.767E-04  0.790E-04  0.767E-04
   9.900  0.837E-03  0.813E-03  0.837E-03  0.813E-03
  10.000  0.339E-02  0.329E-02  0.339E-02  0.329E-02
  10.100  0.597E-02  0.581E-02  0.597E-02  0.581E-02
  10.200  0.493E-02  0.480E-02  0.493E-02  0.480E-02
  10.300  0.176E-02  0.172E-02  0.176E-02  0.172E-02
  10.400  0.434E-03  0.419E-03  0.434E-03  0.419E-03
  10.500  0.133E-02  0.127E-02  0.133E-02  0.127E-02
  10.600  0.300E-02  0.287E-02  0.300E-02  0.287E-02
  10.700  0.240E-02  0.230E-02  0.240E-02  0.230E-02
  10.800  0.138E-02  0.130E-02  0.138E-02  0.130E-02
  10.900  0.241E-02  0.223E-02  0.241E-02  0.223E-02
  11.000  0.243E-02  0.225E-02  0.243E-02  0.225E-02
  11.100  0.851E-03  0.786E-03  0.851E-03  0.786E-03
  11.200  0.106E-03  0.971E-04  0.106E-03  0.971E-04
  11.300  0.736E-04  0.613E-04  0.736E-04  0.613E-04
  11.400  0.418E-03  0.339E-03  0.418E-03  0.339E-03
  11.500  0.132E-02  0.103E-02  0.132E-02  0.103E-02
  11.600  0.251E-02  0.190E-02  0.251E-02  0.190E-02
  11.700  0.221E-02  0.165E-02  0.221E-02  0.165E-02
  11.800  0.802E-03  0.609E-03  0.802E-03  0.609E-03
  11.900  0.478E-03  0.426E-03  0.478E-03  0.426E-03
  12.000  0.163E-02  0.168E-02  0.163E-02  0.168E-02
  12.100  0.440E-02  0.464E-02  0.440E-02  0.464E-02
  12.200  0.626E-02  0.619E-02  0.626E-02  0.619E-02
  12.300  0.523E-02  0.432E-02  0.523E-02  0.432E-02
  12.400  0.330E-02  0.198E-02  0.330E-02  0.198E-02
  12.500  0.181E-02  0.102E-02  0.181E-02  0.102E-02
  12.600  0.718E-03  0.491E-03  0.718E-03  0.491E-03
  12.700  0.374E-03  0.321E-03  0.374E-03  0.321E-03
  12.800  0.603E-03  0.616E-03  0.603E-03  0.616E-03
  12.900  0.773E-03  0.971E-03  0.773E-03  0.971E-03
  13.000  0.730E-03  0.172E-02  0.730E-03  0.172E-02
  13.100  0.770E-03  0.261E-02  0.770E-03  0.261E-02
  13.200  0.920E-03  0.225E-02  0.920E-03  0.225E-02
  13.300  0.790E-03  0.130E-02  0.790E-03  0.130E-02
  13.400  0.470E-03  0.103E-02  0.470E-03  0.103E-02
  13.500  0.261E-03  0.108E-02  0.261E-03  0.108E-02
  13.600  0.270E-03  0.781E-03  0.270E-03  0.781E-03
  13.700  0.431E-03  0.651E-03  0.431E-03  0.651E-03
  13.800  0.503E-03  0.715E-03  0.503E-03  0.715E-03
  13.900  0.321E-03  0.751E-03  0.321E-03  0.751E-03
  14.000  0.164E-03  0.881E-03  0.164E-03  0.881E-03
  14.100  0.102E-03  0.879E-03  0.102E-03  0.879E-03
  14.200  0.111E-03  0.701E-03  0.111E-03  0.701E-03
  14.300  0.199E-03  0.547E-03  0.199E-03  0.547E-03
  14.400  0.216E-03  0.395E-03  0.216E-03  0.395E-03
  14.500  0.198E-03  0.285E-03  0.198E-03  0.285E-03
  14.600  0.249E-03  0.248E-03  0.249E-03  0.248E-03
  14.700  0.421E-03  0.255E-03  0.421E-03  0.255E-03
  14.800  0.579E-03  0.249E-03  0.579E-03  0.249E-03
  14.900  0.739E-03  0.231E-03  0.739E-03  0.231E-03
  15.000  0.120E-02  0.352E-03  0.120E-02  0.352E-03
  15.100  0.139E-02  0.476E-03  0.139E-02  0.476E-03
  15.200  0.114E-02  0.350E-03  0.114E-02  0.350E-03
  15.300  0.712E-03  0.203E-03  0.712E-03  0.203E-03
  15.400  0.579E-03  0.279E-03  0.579E-03  0.279E-03
  15.500  0.552E-03  0.370E-03  0.552E-03  0.370E-03
  15.600  0.339E-03  0.318E-03  0.339E-03  0.318E-03
  15.700  0.302E-03  0.546E-03  0.302E-03  0.546E-03
  15.800  0.701E-03  0.984E-03  0.701E-03  0.984E-03
  15.900  0.115E-02  0.984E-03  0.115E-02  0.984E-03
  16.000  0.125E-02  0.695E-03  0.125E-02  0.695E-03
  16.100  0.101E-02  0.838E-03  0.101E-02  0.838E-03
  16.200  0.796E-03  0.955E-03  0.796E-03  0.955E-03
  16.300  0.136E-02  0.569E-03  0.136E-02  0.569E-03
  16.400  0.210E-02  0.307E-03  0.210E-02  0.307E-03
  16.500  0.166E-02  0.223E-03  0.166E-02  0.223E-03
  16.600  0.901E-03  0.293E-03  0.901E-03  0.293E-03
  16.700  0.828E-03  0.447E-03  0.828E-03  0.447E-03
  16.800  0.623E-03  0.381E-03  0.623E-03  0.381E-03
  16.900  0.571E-03  0.422E-03  0.571E-03  0.422E-03
  17.000  0.685E-03  0.471E-03  0.685E-03  0.471E-03
  17.100  0.410E-03  0.242E-03  0.410E-03  0.242E-03
  17.200  0.217E-03  0.180E-03  0.217E-03  0.180E-03
  17.300  0.460E-03  0.503E-03  0.460E-03  0.503E-03
  17.400  0.739E-03  0.828E-03  0.739E-03  0.828E-03
  17.500  0.745E-03  0.862E-03  0.745E-03  0.862E-03
  17.600  0.417E-03  0.524E-03  0.417E-03  0.524E-03
  17.700  0.947E-04  0.149E-03  0.947E-04  0.149E-03
  17.800  0.339E-04  0.287E-04  0.339E-04  0.287E-04
  17.900  0.236E-03  0.808E-04  0.236E-03  0.808E-04
  18.000  0.713E-03  0.241E-03  0.713E-03  0.241E-03
  18.100  0.733E-03  0.248E-03  0.733E-03  0.248E-03
  18.200  0.256E-03  0.868E-04  0.256E-03  0.868E-04
  18.300  0.303E-04  0.103E-04  0.303E-04  0.103E-04
  18.400  0.122E-05  0.415E-06  0.122E-05  0.415E-06
  18.500  0.166E-07  0.567E-08  0.166E-07  0.567E-08
