# E (eV)  ldosup(E)  ldosdw(E) pdosup(E)  pdosdw(E) 
   2.000  0.000E+00  0.000E+00  0.000E+00  0.000E+00
   2.100  0.000E+00  0.000E+00  0.000E+00  0.000E+00
   2.200  0.000E+00  0.000E+00  0.000E+00  0.000E+00
   2.300  0.000E+00  0.000E+00  0.000E+00  0.000E+00
   2.400  0.000E+00  0.000E+00  0.000E+00  0.000E+00
   2.500  0.000E+00  0.000E+00  0.000E+00  0.000E+00
   2.600  0.000E+00  0.000E+00  0.000E+00  0.000E+00
   2.700  0.000E+00  0.000E+00  0.000E+00  0.000E+00
   2.800  0.000E+00  0.000E+00  0.000E+00  0.000E+00
   2.900  0.000E+00  0.000E+00  0.000E+00  0.000E+00
   3.000  0.000E+00  0.000E+00  0.000E+00  0.000E+00
   3.100  0.000E+00  0.000E+00  0.000E+00  0.000E+00
   3.200  0.000E+00  0.000E+00  0.000E+00  0.000E+00
   3.300  0.000E+00  0.000E+00  0.000E+00  0.000E+00
   3.400  0.000E+00  0.000E+00  0.000E+00  0.000E+00
   3.500  0.000E+00  0.000E+00  0.000E+00  0.000E+00
   3.600  0.000E+00  0.000E+00  0.000E+00  0.000E+00
   3.700  0.000E+00  0.000E+00  0.000E+00  0.000E+00
   3.800  0.000E+00  0.000E+00  0.000E+00  0.000E+00
   3.900  0.000E+00  0.000E+00  0.000E+00  0.000E+00
   4.000  0.000E+00  0.000E+00  0.000E+00  0.000E+00
   4.100  0.000E+00  0.000E+00  0.000E+00  0.000E+00
   4.200  0.000E+00  0.000E+00  0.000E+00  0.000E+00
   4.300  0.000E+00  0.000E+00  0.000E+00  0.000E+00
   4.400  0.000E+00  0.000E+00  0.000E+00  0.000E+00
   4.500  0.000E+00  0.000E+00  0.000E+00  0.000E+00
   4.600  0.000E+00  0.000E+00  0.000E+00  0.000E+00
   4.700  0.000E+00  0.000E+00  0.000E+00  0.000E+00
   4.800  0.000E+00  0.000E+00  0.000E+00  0.000E+00
   4.900  0.000E+00  0.000E+00  0.000E+00  0.000E+00
   5.000  0.000E+00  0.000E+00  0.000E+00  0.000E+00
   5.100  0.000E+00  0.000E+00  0.000E+00  0.000E+00
   5.200  0.000E+00  0.000E+00  0.000E+00  0.000E+00
   5.300  0.000E+00  0.000E+00  0.000E+00  0.000E+00
   5.400  0.000E+00  0.000E+00  0.000E+00  0.000E+00
   5.500  0.000E+00  0.000E+00  0.000E+00  0.000E+00
   5.600  0.000E+00  0.000E+00  0.000E+00  0.000E+00
   5.700  0.000E+00  0.000E+00  0.000E+00  0.000E+00
   5.800  0.000E+00  0.000E+00  0.000E+00  0.000E+00
   5.900  0.000E+00  0.000E+00  0.000E+00  0.000E+00
   6.000  0.000E+00  0.000E+00  0.000E+00  0.000E+00
   6.100  0.000E+00  0.000E+00  0.000E+00  0.000E+00
   6.200  0.000E+00  0.000E+00  0.000E+00  0.000E+00
   6.300  0.000E+00  0.000E+00  0.000E+00  0.000E+00
   6.400  0.000E+00  0.000E+00  0.000E+00  0.000E+00
   6.500  0.000E+00  0.000E+00  0.000E+00  0.000E+00
   6.600  0.000E+00  0.000E+00  0.000E+00  0.000E+00
   6.700  0.000E+00  0.000E+00  0.000E+00  0.000E+00
   6.800  0.000E+00  0.000E+00  0.000E+00  0.000E+00
   6.900  0.000E+00  0.000E+00  0.000E+00  0.000E+00
   7.000  0.000E+00  0.000E+00  0.000E+00  0.000E+00
   7.100  0.000E+00  0.000E+00  0.000E+00  0.000E+00
   7.200  0.000E+00  0.000E+00  0.000E+00  0.000E+00
   7.300  0.000E+00  0.000E+00  0.000E+00  0.000E+00
   7.400  0.000E+00  0.000E+00  0.000E+00  0.000E+00
   7.500  0.000E+00  0.000E+00  0.000E+00  0.000E+00
   7.600  0.000E+00  0.000E+00  0.000E+00  0.000E+00
   7.700  0.000E+00  0.000E+00  0.000E+00  0.000E+00
   7.800  0.000E+00  0.000E+00  0.000E+00  0.000E+00
   7.900  0.000E+00  0.000E+00  0.000E+00  0.000E+00
   8.000  0.544E-14  0.557E-14  0.544E-14  0.557E-14
   8.100  0.497E-11  0.509E-11  0.497E-11  0.509E-11
   8.200  0.154E-08  0.158E-08  0.154E-08  0.158E-08
   8.300  0.162E-06  0.166E-06  0.162E-06  0.166E-06
   8.400  0.580E-05  0.595E-05  0.580E-05  0.595E-05
   8.500  0.703E-04  0.722E-04  0.703E-04  0.722E-04
   8.600  0.290E-03  0.298E-03  0.290E-03  0.298E-03
   8.700  0.405E-03  0.417E-03  0.405E-03  0.417E-03
   8.800  0.208E-03  0.214E-03  0.208E-03  0.214E-03
   8.900  0.214E-03  0.219E-03  0.214E-03  0.219E-03
   9.000  0.706E-03  0.723E-03  0.706E-03  0.723E-03
   9.100  0.920E-03  0.941E-03  0.920E-03  0.941E-03
   9.200  0.407E-03  0.417E-03  0.407E-03  0.417E-03
   9.300  0.612E-04  0.627E-04  0.612E-04  0.627E-04
   9.400  0.313E-05  0.320E-05  0.313E-05  0.320E-05
   9.500  0.543E-07  0.556E-07  0.543E-07  0.556E-07
   9.600  0.299E-07  0.308E-07  0.299E-07  0.308E-07
   9.700  0.257E-05  0.264E-05  0.257E-05  0.264E-05
   9.800  0.767E-04  0.790E-04  0.767E-04  0.790E-04
   9.900  0.813E-03  0.837E-03  0.813E-03  0.837E-03
  10.000  0.329E-02  0.339E-02  0.329E-02  0.339E-02
  10.100  0.580E-02  0.597E-02  0.580E-02  0.597E-02
  10.200  0.479E-02  0.493E-02  0.479E-02  0.493E-02
  10.300  0.172E-02  0.176E-02  0.172E-02  0.176E-02
  10.400  0.419E-03  0.434E-03  0.419E-03  0.434E-03
  10.500  0.127E-02  0.133E-02  0.127E-02  0.133E-02
  10.600  0.287E-02  0.300E-02  0.287E-02  0.300E-02
  10.700  0.229E-02  0.240E-02  0.229E-02  0.240E-02
  10.800  0.130E-02  0.138E-02  0.130E-02  0.138E-02
  10.900  0.223E-02  0.241E-02  0.223E-02  0.241E-02
  11.000  0.225E-02  0.243E-02  0.225E-02  0.243E-02
  11.100  0.786E-03  0.850E-03  0.786E-03  0.850E-03
  11.200  0.972E-04  0.105E-03  0.972E-04  0.105E-03
  11.300  0.614E-04  0.738E-04  0.614E-04  0.738E-04
  11.400  0.340E-03  0.418E-03  0.340E-03  0.418E-03
  11.500  0.103E-02  0.132E-02  0.103E-02  0.132E-02
  11.600  0.190E-02  0.251E-02  0.190E-02  0.251E-02
  11.700  0.165E-02  0.221E-02  0.165E-02  0.221E-02
  11.800  0.606E-03  0.803E-03  0.606E-03  0.803E-03
  11.900  0.421E-03  0.483E-03  0.421E-03  0.483E-03
  12.000  0.167E-02  0.164E-02  0.167E-02  0.164E-02
  12.100  0.463E-02  0.441E-02  0.463E-02  0.441E-02
  12.200  0.620E-02  0.626E-02  0.620E-02  0.626E-02
  12.300  0.434E-02  0.522E-02  0.434E-02  0.522E-02
  12.400  0.199E-02  0.328E-02  0.199E-02  0.328E-02
  12.500  0.103E-02  0.179E-02  0.103E-02  0.179E-02
  12.600  0.494E-03  0.713E-03  0.494E-03  0.713E-03
  12.700  0.319E-03  0.375E-03  0.319E-03  0.375E-03
  12.800  0.613E-03  0.606E-03  0.613E-03  0.606E-03
  12.900  0.973E-03  0.773E-03  0.973E-03  0.773E-03
  13.000  0.172E-02  0.729E-03  0.172E-02  0.729E-03
  13.100  0.260E-02  0.776E-03  0.260E-02  0.776E-03
  13.200  0.224E-02  0.923E-03  0.224E-02  0.923E-03
  13.300  0.130E-02  0.786E-03  0.130E-02  0.786E-03
  13.400  0.102E-02  0.468E-03  0.102E-02  0.468E-03
  13.500  0.108E-02  0.261E-03  0.108E-02  0.261E-03
  13.600  0.783E-03  0.272E-03  0.783E-03  0.272E-03
  13.700  0.650E-03  0.435E-03  0.650E-03  0.435E-03
  13.800  0.717E-03  0.504E-03  0.717E-03  0.504E-03
  13.900  0.750E-03  0.319E-03  0.750E-03  0.319E-03
  14.000  0.878E-03  0.163E-03  0.878E-03  0.163E-03
  14.100  0.882E-03  0.101E-03  0.882E-03  0.101E-03
  14.200  0.705E-03  0.112E-03  0.705E-03  0.112E-03
  14.300  0.551E-03  0.200E-03  0.551E-03  0.200E-03
  14.400  0.398E-03  0.216E-03  0.398E-03  0.216E-03
  14.500  0.287E-03  0.198E-03  0.287E-03  0.198E-03
  14.600  0.250E-03  0.248E-03  0.250E-03  0.248E-03
  14.700  0.257E-03  0.417E-03  0.257E-03  0.417E-03
  14.800  0.248E-03  0.579E-03  0.248E-03  0.579E-03
  14.900  0.230E-03  0.738E-03  0.230E-03  0.738E-03
  15.000  0.353E-03  0.119E-02  0.353E-03  0.119E-02
  15.100  0.477E-03  0.139E-02  0.477E-03  0.139E-02
  15.200  0.350E-03  0.115E-02  0.350E-03  0.115E-02
  15.300  0.202E-03  0.717E-03  0.202E-03  0.717E-03
  15.400  0.278E-03  0.581E-03  0.278E-03  0.581E-03
  15.500  0.367E-03  0.555E-03  0.367E-03  0.555E-03
  15.600  0.315E-03  0.343E-03  0.315E-03  0.343E-03
  15.700  0.540E-03  0.306E-03  0.540E-03  0.306E-03
  15.800  0.981E-03  0.701E-03  0.981E-03  0.701E-03
  15.900  0.988E-03  0.115E-02  0.988E-03  0.115E-02
  16.000  0.695E-03  0.125E-02  0.695E-03  0.125E-02
  16.100  0.830E-03  0.102E-02  0.830E-03  0.102E-02
  16.200  0.951E-03  0.792E-03  0.951E-03  0.792E-03
  16.300  0.574E-03  0.135E-02  0.574E-03  0.135E-02
  16.400  0.313E-03  0.209E-02  0.313E-03  0.209E-02
  16.500  0.225E-03  0.167E-02  0.225E-03  0.167E-02
  16.600  0.296E-03  0.910E-03  0.296E-03  0.910E-03
  16.700  0.449E-03  0.829E-03  0.449E-03  0.829E-03
  16.800  0.381E-03  0.625E-03  0.381E-03  0.625E-03
  16.900  0.423E-03  0.570E-03  0.423E-03  0.570E-03
  17.000  0.470E-03  0.686E-03  0.470E-03  0.686E-03
  17.100  0.240E-03  0.413E-03  0.240E-03  0.413E-03
  17.200  0.180E-03  0.218E-03  0.180E-03  0.218E-03
  17.300  0.505E-03  0.459E-03  0.505E-03  0.459E-03
  17.400  0.829E-03  0.739E-03  0.829E-03  0.739E-03
  17.500  0.862E-03  0.746E-03  0.862E-03  0.746E-03
  17.600  0.523E-03  0.417E-03  0.523E-03  0.417E-03
  17.700  0.148E-03  0.950E-04  0.148E-03  0.950E-04
  17.800  0.284E-04  0.338E-04  0.284E-04  0.338E-04
  17.900  0.810E-04  0.235E-03  0.810E-04  0.235E-03
  18.000  0.242E-03  0.713E-03  0.242E-03  0.713E-03
  18.100  0.248E-03  0.734E-03  0.248E-03  0.734E-03
  18.200  0.866E-04  0.256E-03  0.866E-04  0.256E-03
  18.300  0.102E-04  0.304E-04  0.102E-04  0.304E-04
  18.400  0.412E-06  0.123E-05  0.412E-06  0.123E-05
  18.500  0.562E-08  0.168E-07  0.562E-08  0.168E-07
